# transmission of niri Broad-band L (prime) filter
# columns are (1) Wavelength in nm, (2) transmission
# first and last values are 0 for extrapolation purposes
# author: Brian Walls
# created: 29 Aug 1999
# replaced with scanned transmission curve: 26 may 2006
# Lprime G0207 
3285   0.000000
3286   0.000000
3287   0.000100
3288   0.000300
3289   0.000500
3290   0.000700
3291   0.000900
3292   0.001100
3293   0.001300
3294   0.001500
3295   0.001800
3296   0.002000
3297   0.002300
3298   0.002600
3299   0.002900
3300   0.003200
3301   0.003500
3302   0.003700
3303   0.004000
3304   0.004300
3305   0.004600
3306   0.004900
3307   0.005200
3308   0.005500
3309   0.005800
3310   0.006100
3311   0.006400
3312   0.006700
3313   0.007000
3314   0.007300
3315   0.007700
3316   0.008000
3317   0.008300
3318   0.008600
3319   0.009000
3320   0.009300
3321   0.009700
3322   0.010000
3323   0.010400
3324   0.010800
3325   0.011200
3326   0.011600
3327   0.012000
3328   0.012400
3329   0.012800
3330   0.013300
3331   0.013700
3332   0.014100
3333   0.014600
3334   0.015000
3335   0.015500
3336   0.015900
3337   0.016300
3338   0.016700
3339   0.017200
3340   0.017500
3341   0.017900
3342   0.018300
3343   0.018600
3344   0.019000
3345   0.019300
3346   0.019600
3347   0.019800
3348   0.020100
3349   0.020400
3350   0.020700
3351   0.020900
3352   0.021300
3353   0.021600
3354   0.022000
3355   0.022400
3356   0.022900
3357   0.023500
3358   0.024100
3359   0.024800
3360   0.025600
3361   0.026500
3362   0.027400
3363   0.028500
3364   0.029600
3365   0.030700
3366   0.031900
3367   0.033100
3368   0.034300
3369   0.035400
3370   0.036600
3371   0.037600
3372   0.038600
3373   0.039600
3374   0.040400
3375   0.041200
3376   0.042000
3377   0.042900
3378   0.043900
3379   0.045000
3380   0.046500
3381   0.048200
3382   0.050400
3383   0.052900
3384   0.055900
3385   0.059500
3386   0.063600
3387   0.067900
3388   0.072300
3389   0.076600
3390   0.080600
3391   0.084300
3392   0.087700
3393   0.091100
3394   0.094500
3395   0.098200
3396   0.102200
3397   0.106900
3398   0.112300
3399   0.118800
3400   0.126500
3401   0.135300
3402   0.144600
3403   0.153800
3404   0.162600
3405   0.171200
3406   0.180400
3407   0.190400
3408   0.201600
3409   0.213500
3410   0.225500
3411   0.237400
3412   0.250200
3413   0.265200
3414   0.282000
3415   0.298000
3416   0.313300
3417   0.330500
3418   0.348700
3419   0.365700
3420   0.382700
3421   0.401300
3422   0.422100
3423   0.444900
3424   0.468900
3425   0.492600
3426   0.513700
3427   0.531600
3428   0.549000
3429   0.569200
3430   0.593700
3431   0.617600
3432   0.636500
3433   0.653700
3434   0.674500
3435   0.699000
3436   0.719700
3437   0.733700
3438   0.745200
3439   0.759300
3440   0.778600
3441   0.799400
3442   0.817000
3443   0.829700
3444   0.839100
3445   0.847100
3446   0.855200
3447   0.863800
3448   0.872100
3449   0.879300
3450   0.885000
3451   0.889600
3452   0.893200
3453   0.896100
3454   0.898600
3455   0.900800
3456   0.902700
3457   0.904400
3458   0.905900
3459   0.907200
3460   0.908300
3461   0.909200
3462   0.910000
3463   0.910700
3464   0.911300
3465   0.911700
3466   0.912100
3467   0.912400
3468   0.912600
3469   0.912800
3470   0.913000
3471   0.913100
3472   0.913200
3473   0.913300
3474   0.913400
3475   0.913600
3476   0.913800
3477   0.914100
3478   0.914400
3479   0.914800
3480   0.915300
3481   0.915900
3482   0.916600
3483   0.917400
3484   0.918400
3485   0.919500
3486   0.920800
3487   0.922000
3488   0.923300
3489   0.924500
3490   0.925600
3491   0.926600
3492   0.927300
3493   0.927800
3494   0.928100
3495   0.927900
3496   0.927400
3497   0.926500
3498   0.925300
3499   0.923800
3500   0.922100
3501   0.920400
3502   0.918600
3503   0.916900
3504   0.915400
3505   0.913900
3506   0.912600
3507   0.911400
3508   0.910300
3509   0.909100
3510   0.908000
3511   0.906900
3512   0.905800
3513   0.904600
3514   0.903400
3515   0.902100
3516   0.900800
3517   0.899500
3518   0.898200
3519   0.896800
3520   0.895400
3521   0.894000
3522   0.892600
3523   0.891200
3524   0.889800
3525   0.888500
3526   0.887300
3527   0.886100
3528   0.884900
3529   0.883900
3530   0.882800
3531   0.881900
3532   0.880900
3533   0.880000
3534   0.879100
3535   0.878200
3536   0.877200
3537   0.876300
3538   0.875400
3539   0.874500
3540   0.873600
3541   0.872800
3542   0.872100
3543   0.871400
3544   0.870900
3545   0.870500
3546   0.870200
3547   0.870100
3548   0.870100
3549   0.870100
3550   0.870300
3551   0.870600
3552   0.870900
3553   0.871400
3554   0.871800
3555   0.872400
3556   0.873000
3557   0.873600
3558   0.874300
3559   0.875000
3560   0.875800
3561   0.876500
3562   0.877400
3563   0.878200
3564   0.879100
3565   0.880100
3566   0.881100
3567   0.882100
3568   0.883200
3569   0.884300
3570   0.885400
3571   0.886500
3572   0.887600
3573   0.888800
3574   0.889900
3575   0.891100
3576   0.892200
3577   0.893300
3578   0.894400
3579   0.895500
3580   0.896600
3581   0.897600
3582   0.898500
3583   0.899400
3584   0.900300
3585   0.901100
3586   0.901800
3587   0.902500
3588   0.903200
3589   0.903800
3590   0.904500
3591   0.905100
3592   0.905900
3593   0.906600
3594   0.907500
3595   0.908400
3596   0.909400
3597   0.910500
3598   0.911700
3599   0.912900
3600   0.914100
3601   0.915200
3602   0.916400
3603   0.917400
3604   0.918400
3605   0.919200
3606   0.920000
3607   0.920800
3608   0.921400
3609   0.922000
3610   0.922400
3611   0.922800
3612   0.923200
3613   0.923400
3614   0.923700
3615   0.923800
3616   0.924000
3617   0.924200
3618   0.924300
3619   0.924500
3620   0.924800
3621   0.925000
3622   0.925400
3623   0.925800
3624   0.926200
3625   0.926800
3626   0.927500
3627   0.928200
3628   0.928900
3629   0.929700
3630   0.930500
3631   0.931300
3632   0.932100
3633   0.932800
3634   0.933500
3635   0.934100
3636   0.934700
3637   0.935300
3638   0.935700
3639   0.936200
3640   0.936600
3641   0.936900
3642   0.937300
3643   0.937600
3644   0.937900
3645   0.938200
3646   0.938600
3647   0.938900
3648   0.939200
3649   0.939500
3650   0.939900
3651   0.940200
3652   0.940500
3653   0.940900
3654   0.941200
3655   0.941400
3656   0.941700
3657   0.941900
3658   0.942100
3659   0.942200
3660   0.942300
3661   0.942300
3662   0.942300
3663   0.942300
3664   0.942200
3665   0.942000
3666   0.941900
3667   0.941700
3668   0.941400
3669   0.941100
3670   0.940800
3671   0.940500
3672   0.940100
3673   0.939700
3674   0.939300
3675   0.938800
3676   0.938400
3677   0.937900
3678   0.937500
3679   0.937000
3680   0.936600
3681   0.936200
3682   0.935800
3683   0.935400
3684   0.935000
3685   0.934700
3686   0.934300
3687   0.933900
3688   0.933400
3689   0.933000
3690   0.932500
3691   0.931900
3692   0.931400
3693   0.930700
3694   0.930100
3695   0.929500
3696   0.928900
3697   0.928400
3698   0.927900
3699   0.927500
3700   0.927200
3701   0.927000
3702   0.926900
3703   0.926800
3704   0.926900
3705   0.926900
3706   0.927000
3707   0.927100
3708   0.927000
3709   0.926900
3710   0.926700
3711   0.926300
3712   0.925800
3713   0.925000
3714   0.924100
3715   0.923000
3716   0.921700
3717   0.920400
3718   0.918900
3719   0.917500
3720   0.916100
3721   0.914800
3722   0.913600
3723   0.912400
3724   0.911400
3725   0.910500
3726   0.909600
3727   0.908900
3728   0.908200
3729   0.907600
3730   0.907000
3731   0.906500
3732   0.906100
3733   0.905700
3734   0.905300
3735   0.905000
3736   0.904700
3737   0.904500
3738   0.904400
3739   0.904200
3740   0.904100
3741   0.904100
3742   0.904100
3743   0.904100
3744   0.904200
3745   0.904300
3746   0.904400
3747   0.904500
3748   0.904600
3749   0.904700
3750   0.904800
3751   0.904900
3752   0.904900
3753   0.904900
3754   0.904900
3755   0.904800
3756   0.904800
3757   0.904800
3758   0.904800
3759   0.904900
3760   0.905100
3761   0.905500
3762   0.905900
3763   0.906600
3764   0.907500
3765   0.908600
3766   0.909800
3767   0.911200
3768   0.912600
3769   0.914000
3770   0.915300
3771   0.916500
3772   0.917500
3773   0.918300
3774   0.918900
3775   0.919300
3776   0.919500
3777   0.919500
3778   0.919500
3779   0.919400
3780   0.919200
3781   0.919000
3782   0.918800
3783   0.918600
3784   0.918600
3785   0.918500
3786   0.918600
3787   0.918700
3788   0.918800
3789   0.918900
3790   0.919100
3791   0.919200
3792   0.919300
3793   0.919400
3794   0.919500
3795   0.919400
3796   0.919300
3797   0.919200
3798   0.919100
3799   0.918900
3800   0.918800
3801   0.918700
3802   0.918700
3803   0.918700
3804   0.918700
3805   0.918900
3806   0.919200
3807   0.919600
3808   0.920100
3809   0.920800
3810   0.921600
3811   0.922400
3812   0.923400
3813   0.924400
3814   0.925500
3815   0.926700
3816   0.927800
3817   0.929000
3818   0.930300
3819   0.931400
3820   0.932600
3821   0.933600
3822   0.934500
3823   0.935300
3824   0.935900
3825   0.936300
3826   0.936500
3827   0.936500
3828   0.936100
3829   0.935600
3830   0.934900
3831   0.934000
3832   0.933000
3833   0.931900
3834   0.930800
3835   0.929800
3836   0.928800
3837   0.927800
3838   0.927100
3839   0.926400
3840   0.925800
3841   0.925400
3842   0.925000
3843   0.924800
3844   0.924600
3845   0.924500
3846   0.924400
3847   0.924500
3848   0.924500
3849   0.924700
3850   0.924800
3851   0.925000
3852   0.925300
3853   0.925500
3854   0.925800
3855   0.926100
3856   0.926400
3857   0.926800
3858   0.927100
3859   0.927500
3860   0.927800
3861   0.928200
3862   0.928500
3863   0.928900
3864   0.929200
3865   0.929500
3866   0.929800
3867   0.930000
3868   0.930300
3869   0.930400
3870   0.930600
3871   0.930600
3872   0.930700
3873   0.930600
3874   0.930500
3875   0.930400
3876   0.930100
3877   0.929900
3878   0.929700
3879   0.929400
3880   0.929200
3881   0.929000
3882   0.928900
3883   0.928800
3884   0.928700
3885   0.928800
3886   0.929000
3887   0.929300
3888   0.929600
3889   0.930100
3890   0.930600
3891   0.931100
3892   0.931700
3893   0.932300
3894   0.932900
3895   0.933500
3896   0.934100
3897   0.934600
3898   0.935000
3899   0.935400
3900   0.935700
3901   0.936000
3902   0.936300
3903   0.936600
3904   0.936800
3905   0.937100
3906   0.937400
3907   0.937700
3908   0.938200
3909   0.938600
3910   0.939200
3911   0.939800
3912   0.940500
3913   0.941100
3914   0.941800
3915   0.942400
3916   0.943100
3917   0.943600
3918   0.944100
3919   0.944600
3920   0.944900
3921   0.945100
3922   0.945300
3923   0.945200
3924   0.945200
3925   0.945000
3926   0.944700
3927   0.944400
3928   0.944100
3929   0.943700
3930   0.943400
3931   0.943000
3932   0.942600
3933   0.942300
3934   0.942000
3935   0.941700
3936   0.941400
3937   0.941200
3938   0.940900
3939   0.940600
3940   0.940200
3941   0.939800
3942   0.939400
3943   0.938900
3944   0.938400
3945   0.937700
3946   0.937000
3947   0.936300
3948   0.935500
3949   0.934700
3950   0.933900
3951   0.933100
3952   0.932200
3953   0.931400
3954   0.930700
3955   0.930000
3956   0.929300
3957   0.928800
3958   0.928300
3959   0.927800
3960   0.927400
3961   0.927000
3962   0.926600
3963   0.926200
3964   0.925800
3965   0.925300
3966   0.924700
3967   0.924000
3968   0.923200
3969   0.922300
3970   0.921200
3971   0.920000
3972   0.918800
3973   0.917400
3974   0.916000
3975   0.914600
3976   0.913200
3977   0.911900
3978   0.910700
3979   0.909600
3980   0.908600
3981   0.907700
3982   0.907000
3983   0.906300
3984   0.905700
3985   0.905200
3986   0.904700
3987   0.904200
3988   0.903600
3989   0.903100
3990   0.902500
3991   0.901900
3992   0.901200
3993   0.900500
3994   0.899700
3995   0.899000
3996   0.898300
3997   0.897600
3998   0.896900
3999   0.896300
4000   0.895800
4001   0.895300
4002   0.894900
4003   0.894600
4004   0.894400
4005   0.894300
4006   0.894200
4007   0.894200
4008   0.894200
4009   0.894200
4010   0.894200
4011   0.894300
4012   0.894300
4013   0.894200
4014   0.894200
4015   0.894100
4016   0.894000
4017   0.893900
4018   0.893900
4019   0.894100
4020   0.894300
4021   0.894700
4022   0.895300
4023   0.896200
4024   0.897300
4025   0.898800
4026   0.900500
4027   0.902400
4028   0.904500
4029   0.906500
4030   0.908400
4031   0.910200
4032   0.911600
4033   0.912600
4034   0.913300
4035   0.913700
4036   0.914000
4037   0.914100
4038   0.914100
4039   0.914100
4040   0.914100
4041   0.914300
4042   0.914500
4043   0.915000
4044   0.915800
4045   0.916800
4046   0.918100
4047   0.919600
4048   0.921200
4049   0.922900
4050   0.924600
4051   0.926200
4052   0.927800
4053   0.929200
4054   0.930600
4055   0.931800
4056   0.933100
4057   0.934300
4058   0.935400
4059   0.936600
4060   0.937700
4061   0.938900
4062   0.940100
4063   0.941300
4064   0.942500
4065   0.943800
4066   0.945100
4067   0.946300
4068   0.947600
4069   0.948900
4070   0.950200
4071   0.951400
4072   0.952500
4073   0.953500
4074   0.954300
4075   0.954800
4076   0.955100
4077   0.955000
4078   0.954600
4079   0.953700
4080   0.952400
4081   0.950700
4082   0.948700
4083   0.946400
4084   0.944000
4085   0.941500
4086   0.938900
4087   0.936200
4088   0.933200
4089   0.930000
4090   0.926400
4091   0.922400
4092   0.918000
4093   0.913200
4094   0.907900
4095   0.902200
4096   0.896300
4097   0.890300
4098   0.884200
4099   0.877100
4100   0.868400
4101   0.857100
4102   0.843400
4103   0.828800
4104   0.814800
4105   0.802700
4106   0.792000
4107   0.781500
4108   0.770100
4109   0.756500
4110   0.739700
4111   0.721000
4112   0.702300
4113   0.685100
4114   0.669900
4115   0.656800
4116   0.645900
4117   0.636200
4118   0.624500
4119   0.607600
4120   0.582600
4121   0.554900
4122   0.533800
4123   0.518000
4124   0.502200
4125   0.482300
4126   0.459900
4127   0.439200
4128   0.421300
4129   0.404800
4130   0.388000
4131   0.369500
4132   0.350400
4133   0.332400
4134   0.317400
4135   0.306100
4136   0.297300
4137   0.289500
4138   0.281300
4139   0.271200
4140   0.258900
4141   0.245200
4142   0.231100
4143   0.217500
4144   0.205200
4145   0.194000
4146   0.183900
4147   0.174600
4148   0.165800
4149   0.157700
4150   0.149900
4151   0.142600
4152   0.135700
4153   0.129000
4154   0.122600
4155   0.116300
4156   0.110300
4157   0.104500
4158   0.098900
4159   0.093600
4160   0.088600
4161   0.083900
4162   0.079600
4163   0.075600
4164   0.072000
4165   0.068600
4166   0.065500
4167   0.062600
4168   0.059900
4169   0.057300
4170   0.054800
4171   0.052500
4172   0.050300
4173   0.048200
4174   0.046200
4175   0.044400
4176   0.042600
4177   0.041000
4178   0.039400
4179   0.038000
4180   0.036600
4181   0.035200
4182   0.033900
4183   0.032700
4184   0.031500
4185   0.030400
4186   0.029200
4187   0.028100
4188   0.027000
4189   0.025900
4190   0.024900
4191   0.023800
4192   0.022800
4193   0.021800
4194   0.020800
4195   0.019800
4196   0.018900
4197   0.017900
4198   0.017000
4199   0.016100
4200   0.015200
4201   0.014400
4202   0.013700
4203   0.013000
4204   0.012300
4205   0.011800
4206   0.011300
4207   0.010900
4208   0.010600
4209   0.010400
4210   0.010200
4211   0.010200
4212   0.010100
4213   0.010100
4214   0.010100
4215   0.010200
4216   0.010200
4217   0.010200
4218   0.010200
4219   0.010200
4220   0.010100
4221   0.010000
4222   0.009800
4223   0.009600
4224   0.009300
4225   0.009000
4226   0.008600
4227   0.008200
4228   0.007800
4229   0.007300
4230   0.006800
4231   0.006200
4232   0.005700
4233   0.005100
4234   0.004600
4235   0.004000
4236   0.003400
4237   0.002800
4238   0.002300
4239   0.001700
4240   0.001200
4241   0.000700
4242   0.000300
4243   0.000000
4244   0.000000
