#K continuum 2.09  G0217
#scanned cold and tilted by 5 degrees in NIRI
#Wavelength (um)   Transmission fraction
2023.942426   0.003143
2024.647445   0.003226
2025.352463   0.003109
2026.057482   0.003249
2026.762501   0.003285
2027.467520   0.003182
2028.172539   0.003226
2028.877558   0.002961
2029.582577   0.002963
2030.287596   0.003051
2030.992615   0.002944
2031.697633   0.002892
2032.402652   0.002989
2033.107671   0.003214
2033.812690   0.003014
2034.517709   0.002644
2035.222728   0.002719
2035.927747   0.002890
2036.632766   0.002901
2037.337785   0.002917
2038.042804   0.002890
2038.747822   0.002948
2039.452841   0.003261
2040.157860   0.003582
2040.862879   0.003489
2041.567898   0.003597
2042.272917   0.003595
2042.977936   0.003684
2043.682955   0.003718
2044.387974   0.003818
2045.092992   0.003772
2045.798011   0.003753
2046.503030   0.003797
2047.208049   0.003900
2047.913068   0.004010
2048.618087   0.004002
2049.323106   0.004122
2050.028125   0.004252
2050.733144   0.004283
2051.438163   0.004390
2052.143181   0.004541
2052.848200   0.004761
2053.553219   0.004871
2054.258238   0.005049
2054.963257   0.005301
2055.668276   0.005533
2056.373295   0.005815
2057.078314   0.006056
2057.783333   0.006436
2058.488351   0.006682
2059.193370   0.007042
2059.898389   0.007428
2060.603408   0.007779
2061.308427   0.008314
2062.013446   0.009029
2062.718465   0.009717
2063.423484   0.010553
2064.128503   0.011410
2064.833522   0.012448
2065.538540   0.013292
2066.243559   0.014723
2066.948578   0.016252
2067.653597   0.017931
2068.358616   0.019976
2069.063635   0.022740
2069.768654   0.025684
2070.473673   0.029423
2071.178692   0.034033
2071.883710   0.039429
2072.588729   0.046023
2073.293748   0.054659
2073.998767   0.065014
2074.703786   0.077202
2075.408805   0.091892
2076.113824   0.110834
2076.818843   0.133404
2077.523862   0.160783
2078.228881   0.193002
2078.933899   0.231532
2079.638918   0.275421
2080.343937   0.324813
2081.048956   0.377361
2081.753975   0.433719
2082.458994   0.488038
2083.164013   0.540547
2083.869032   0.586539
2084.574051   0.628533
2085.279069   0.661520
2085.984088   0.685861
2086.689107   0.703378
2087.394126   0.716859
2088.099145   0.724578
2088.804164   0.730083
2089.509183   0.731919
2090.214202   0.735086
2090.919221   0.735751
2091.624240   0.735832
2092.329258   0.736063
2093.034277   0.735931
2093.739296   0.734716
2094.444315   0.735370
2095.149334   0.734691
2095.854353   0.733563
2096.559372   0.731852
2097.264391   0.729874
2097.969410   0.728679
2098.674428   0.727522
2099.379447   0.725119
2100.084466   0.722836
2100.789485   0.720645
2101.494504   0.720977
2102.199523   0.720706
2102.904542   0.721414
2103.609561   0.721061
2104.314580   0.720635
2105.019599   0.717989
2105.724617   0.713056
2106.429636   0.702568
2107.134655   0.687244
2107.839674   0.663807
2108.544693   0.634259
2109.249712   0.595241
2109.954731   0.550800
2110.659750   0.498340
2111.364769   0.445040
2112.069787   0.389556
2112.774806   0.336280
2113.479825   0.286173
2114.184844   0.242632
2114.889863   0.203745
2115.594882   0.170464
2116.299901   0.142334
2117.004920   0.119281
2117.709939   0.099659
2118.414958   0.083172
2119.119976   0.070091
2119.824995   0.059755
2120.530014   0.051168
2121.235033   0.043896
2121.940052   0.037967
2122.645071   0.033120
2123.350090   0.028808
2124.055109   0.024950
2124.760128   0.022129
2125.465146   0.019788
2126.170165   0.017624
2126.875184   0.016052
2127.580203   0.014399
2128.285222   0.013144
2128.990241   0.011997
2129.695260   0.010936
2130.400279   0.010047
2131.105298   0.009384
2131.810317   0.008710
2132.515335   0.008122
2133.220354   0.007554
2133.925373   0.007161
2134.630392   0.006882
2135.335411   0.006687
2136.040430   0.006280
2136.745449   0.006083
2137.450468   0.005760
2138.155487   0.005557
2138.860505   0.005280
2139.565524   0.005161
2140.270543   0.004995
2140.975562   0.004527
2141.680581   0.004236
2142.385600   0.004154
2143.090619   0.003977
2143.795638   0.003925
2144.500657   0.003705
2145.205676   0.003582
2145.910694   0.003640
2146.615713   0.003977
2147.320732   0.003840
2148.025751   0.003659
2148.730770   0.003674
2149.435789   0.003654
2150.140808   0.003468
2150.845827   0.003326
2151.550846   0.003316
2152.255864   0.003252
2152.960883   0.003746
2153.665902   0.001991
2156.485978   0.002398
2157.190997   0.002643
2157.896016   0.002721
2158.601035   0.002580
2159.306053   0.002621
2160.011072   0.002409
2160.716091   0.002557
2161.421110   0.002425
2162.126129   0.002357
2162.831148   0.002367
2163.536167   0.002763
2164.241186   0.002642
2164.946205   0.002601
2165.651223   0.002597
2166.356242   0.002581
2167.061261   0.002493
2167.766280   0.002403
2168.471299   0.002388
2169.176318   0.002349
2169.881337   0.002288
2170.586356   0.002423
2171.291375   0.002258
2171.996394   0.002304
2172.701412   0.002177
2173.406431   0.002192
2174.111450   0.002228
2174.816469   0.002099
2175.521488   0.001996
2176.226507   0.002081
2176.931526   0.002363
2177.636545   0.002044
2178.341564   0.002066
2179.046582   0.002150
2179.751601   0.002021
2180.456620   0.002153
2181.161639   0.002045
2181.866658   0.002127
2182.571677   0.002082
2183.276696   0.002089
2183.981715   0.002088
2184.686734   0.002093
2185.391753   0.002107
2186.096771   0.002023
2186.801790   0.001856
2187.506809   0.001987
2188.211828   0.001791
2188.916847   0.001895
2189.621866   0.001871
2190.326885   0.001840
2191.031904   0.001753
2191.736923   0.001638
2192.441941   0.001546
2193.146960   0.001611
2193.851979   0.001504
2194.556998   0.001499
2195.262017   0.001448
2195.967036   0.001474
2196.672055   0.001479
2197.377074   0.001695
2198.082093   0.001638
2198.787112   0.001594
2199.492130   0.001613
2200.197149   0.001559
2200.902168   0.001576
2201.607187   0.001583
2202.312206   0.001476
2203.017225   0.001037
2203.722244   0.001003
2204.427263   0.001043
2205.132282   0.000996
2205.837301   0.001000
2206.542319   0.000977
2207.247338   0.001012
2207.952357   0.000857
2208.657376   0.001393
2209.362395   0.001474
2210.067414   0.001300
2210.772433   0.001511
2211.477452   0.001499
2212.182471   0.001580
2212.887489   0.001560
2213.592508   0.001415
2214.297527   0.001565
2215.002546   0.001580
2215.707565   0.001548
2216.412584   0.001559
2217.117603   0.001587
2217.822622   0.001624
2218.527641   0.001610
2219.232660   0.001517
2219.937678   0.001246
2220.642697   0.001156
2221.347716   0.001174
2222.052735   0.001153
2222.757754   0.001186
2223.462773   0.001132
2224.167792   0.001176
2224.872811   0.001078
2225.577830   0.001002
2226.282848   0.001042
2226.987867   0.001094
2227.692886   0.001085
2228.397905   0.000990
2229.102924   0.001026
2229.807943   0.001055
2230.512962   0.000919
2231.217981   0.001242
2231.923000   0.001465
2232.628019   0.001553
2233.333037   0.001562
2234.038056   0.001497
2234.743075   0.001469
2235.448094   0.001471
2236.153113   0.001559
2236.858132   0.001450
2237.563151   0.001381
2238.268170   0.001353
2238.973189   0.001336
2239.678207   0.001427
2240.383226   0.001361
2241.088245   0.001260
2241.793264   0.001393
2242.498283   0.001104
2243.203302   0.000692
2243.908321   0.000790
2244.613340   0.000766
2245.318359   0.000789
2246.023378   0.000760
2246.728396   0.000698
2247.433415   0.000674
2248.138434   0.000886
2248.843453   0.001259
2249.548472   0.001144
2250.253491   0.001262
2250.958510   0.001246
2251.663529   0.001257
2252.368548   0.001134
2253.073566   0.001181
2253.778585   0.001258
2254.483604   0.001213
2255.188623   0.001142
2255.893642   0.001118
2256.598661   0.001131
2257.303680   0.001148
2258.008699   0.001147
2258.713718   0.001116
2259.418737   0.001119
2260.123755   0.001239
2260.828774   0.001228
2261.533793   0.001270
2262.238812   0.001266
2262.943831   0.001316
2263.648850   0.001218
2264.353869   0.001202
2265.058888   0.001268
2265.763907   0.001287
2266.468925   0.001288
2267.173944   0.001306
2267.878963   0.001311
2268.583982   0.001309
2269.289001   0.001334
2269.994020   0.001430
2270.699039   0.001183
2271.404058   0.001127
2272.109077   0.000976
2272.814096   0.001046
2273.519114   0.001058
2274.224133   0.001113
2274.929152   0.000949
2275.634171   0.001120
2276.339190   0.001079
2277.044209   0.001063
2277.749228   0.001037
2278.454247   0.001054
2279.159266   0.000943
2279.864284   0.001009
2280.569303   0.000869
2281.274322   0.001295
2281.979341   0.006232
2282.684360   0.002415
2283.389379   0.000919
2284.094398   0.001225
2284.799417   0.001104
2285.504436   0.001189
2286.209455   0.001147
2286.914473   0.001231
2287.619492   0.001192
2288.324511   0.000966
2289.029530   0.000787
2289.734549   0.000832
2290.439568   0.000824
2291.144587   0.000880
2291.849606   0.000795
