# transmission of niri Narrow-band CH4 (long) filter
# columns are (1) Wavelength in nm, (2) transmission
# first and last values are 0 for extrapolation purposes
# author: Brian Walls
# created: 29 Aug 1999
# replaced tophat with scanned transmission curve 25may2006
#CH4(long)	G0229
#scanned cold and tilted by 5 degrees in NIRI
1488.351692   0.037912
1488.871769   0.035421
1489.391846   0.035196
1489.911923   0.034736
1490.432000   0.034583
1490.952076   0.031283
1491.472153   0.029255
1491.992230   0.030078
1492.512307   0.029811
1493.032384   0.024084
1493.552460   0.022190
1494.072537   0.021276
1494.592614   0.022375
1495.112691   0.021201
1495.632768   0.020924
1496.152844   0.020490
1496.672921   0.019469
1497.192998   0.020634
1497.713075   0.020615
1498.233152   0.020051
1498.753228   0.019866
1499.273305   0.020028
1499.793382   0.022088
1500.313459   0.019364
1500.833535   0.018827
1501.353612   0.018916
1501.873689   0.018988
1502.393766   0.018079
1502.913843   0.017865
1503.433919   0.017784
1503.953996   0.017853
1504.474073   0.017958
1504.994150   0.017810
1505.514227   0.018525
1506.034303   0.018583
1506.554380   0.018448
1507.074457   0.018435
1507.594534   0.018090
1508.114611   0.019471
1508.634687   0.018837
1509.154764   0.018242
1509.674841   0.019547
1510.194918   0.018347
1510.714995   0.018068
1511.235071   0.018152
1511.755148   0.017266
1512.275225   0.017133
1512.795302   0.018484
1513.315378   0.019129
1513.835455   0.017975
1514.355532   0.017660
1514.875609   0.018093
1515.395686   0.017937
1515.915762   0.018774
1516.435839   0.018586
1516.955916   0.019160
1517.475993   0.019189
1517.996070   0.018595
1518.516146   0.018020
1519.036223   0.019316
1519.556300   0.018795
1520.076377   0.018772
1520.596454   0.019323
1521.116530   0.019046
1521.636607   0.019439
1522.156684   0.019302
1522.676761   0.019239
1523.196837   0.019546
1523.716914   0.021110
1524.236991   0.020338
1524.757068   0.019396
1525.277145   0.019192
1525.797221   0.018407
1526.317298   0.020123
1526.837375   0.019448
1527.357452   0.019276
1527.877529   0.018487
1528.397605   0.019701
1528.917682   0.019588
1529.437759   0.019881
1529.957836   0.018518
1530.477913   0.018324
1530.997989   0.019155
1531.518066   0.020062
1532.038143   0.019511
1532.558220   0.019274
1533.078297   0.018554
1533.598373   0.018136
1534.118450   0.018485
1534.638527   0.018088
1535.158604   0.017492
1535.678680   0.019004
1536.198757   0.018901
1536.718834   0.017497
1537.238911   0.018153
1537.758988   0.018929
1538.279064   0.018591
1538.799141   0.018366
1539.319218   0.018724
1539.839295   0.018201
1540.359372   0.018115
1540.879448   0.018332
1541.399525   0.018567
1541.919602   0.017599
1542.439679   0.017255
1542.959756   0.017284
1543.479832   0.017406
1543.999909   0.017822
1544.519986   0.017932
1545.040063   0.017447
1545.560140   0.017777
1546.080216   0.018361
1546.600293   0.018167
1547.120370   0.018408
1547.640447   0.018766
1548.160523   0.018651
1548.680600   0.018154
1549.200677   0.017954
1549.720754   0.017958
1550.240831   0.018048
1550.760907   0.017357
1551.280984   0.017806
1551.801061   0.018515
1552.321138   0.018552
1552.841215   0.018199
1553.361291   0.018060
1553.881368   0.019040
1554.401445   0.019433
1554.921522   0.018526
1555.441599   0.018594
1555.961675   0.018639
1556.481752   0.018419
1557.001829   0.018260
1557.521906   0.018395
1558.041982   0.019109
1558.562059   0.019471
1559.082136   0.019080
1559.602213   0.019517
1560.122290   0.019358
1560.642366   0.019162
1561.162443   0.018948
1561.682520   0.019207
1562.202597   0.019884
1562.722674   0.019606
1563.242750   0.020009
1563.762827   0.020191
1564.282904   0.020209
1564.802981   0.020859
1565.323058   0.021267
1565.843134   0.020794
1566.363211   0.020897
1566.883288   0.021006
1567.403365   0.020821
1567.923442   0.021365
1568.443518   0.021974
1568.963595   0.022260
1569.483672   0.021831
1570.003749   0.021353
1570.523825   0.021470
1571.043902   0.021146
1571.563979   0.021583
1572.084056   0.021688
1572.604133   0.021935
1573.124209   0.022233
1573.644286   0.022435
1574.164363   0.022129
1574.684440   0.022524
1575.204517   0.022646
1575.724593   0.023022
1576.244670   0.023130
1576.764747   0.023832
1577.284824   0.023729
1577.804901   0.024000
1578.324977   0.024187
1578.845054   0.024511
1579.365131   0.025208
1579.885208   0.025649
1580.405285   0.026262
1580.925361   0.026327
1581.445438   0.026472
1581.965515   0.026231
1582.485592   0.026365
1583.005668   0.027296
1583.525745   0.027948
1584.045822   0.028502
1584.565899   0.028636
1585.085976   0.028202
1585.606052   0.028811
1586.126129   0.029227
1586.646206   0.029151
1587.166283   0.029705
1587.686360   0.030274
1588.206436   0.030603
1588.726513   0.030722
1589.246590   0.031584
1589.766667   0.032149
1590.286744   0.032807
1590.806820   0.033539
1591.326897   0.034007
1591.846974   0.033776
1592.367051   0.034891
1592.887128   0.035734
1593.407204   0.035799
1593.927281   0.036231
1594.447358   0.037199
1594.967435   0.037656
1595.487511   0.039229
1596.007588   0.040898
1596.527665   0.040993
1597.047742   0.042107
1597.567819   0.043255
1598.087895   0.044187
1598.607972   0.045520
1599.128049   0.045724
1599.648126   0.046507
1600.168203   0.047330
1600.688279   0.048086
1601.208356   0.049727
1601.728433   0.050782
1602.248510   0.051850
1602.768587   0.053741
1603.288663   0.055494
1603.808740   0.056603
1604.328817   0.058606
1604.848894   0.059830
1605.368970   0.061507
1605.889047   0.063886
1606.409124   0.065868
1606.929201   0.067823
1607.449278   0.070108
1607.969354   0.072041
1608.489431   0.074692
1609.009508   0.078017
1609.529585   0.080556
1610.049662   0.083297
1610.569738   0.085543
1611.089815   0.087825
1611.609892   0.091919
1612.129969   0.095485
1612.650046   0.098741
1613.170122   0.102912
1613.690199   0.106280
1614.210276   0.109579
1614.730353   0.114283
1615.250430   0.120099
1615.770506   0.124784
1616.290583   0.131227
1616.810660   0.136556
1617.330737   0.141897
1617.850813   0.147923
1618.370890   0.155735
1618.890967   0.162257
1619.411044   0.168534
1619.931121   0.176073
1620.451197   0.185596
1620.971274   0.192793
1621.491351   0.200738
1622.011428   0.210612
1622.531505   0.221388
1623.051581   0.232044
1623.571658   0.241776
1624.091735   0.254622
1624.611812   0.267331
1625.131889   0.278429
1625.651965   0.294009
1626.172042   0.307628
1626.692119   0.321575
1627.212196   0.336295
1627.732273   0.353398
1628.252349   0.370476
1628.772426   0.387403
1629.292503   0.403146
1629.812580   0.422776
1630.332656   0.442470
1630.852733   0.462792
1631.372810   0.478484
1631.892887   0.500213
1632.412964   0.521511
1632.933040   0.540277
1633.453117   0.560120
1633.973194   0.581540
1634.493271   0.600831
1635.013348   0.621565
1635.533424   0.642170
1636.053501   0.663261
1636.573578   0.684089
1637.093655   0.701618
1637.613732   0.721802
1638.133808   0.739744
1638.653885   0.754186
1639.173962   0.776939
1639.694039   0.790892
1640.214115   0.803928
1640.734192   0.814318
1641.254269   0.826043
1641.774346   0.838058
1642.294423   0.845388
1642.814499   0.856170
1643.334576   0.864028
1643.854653   0.872488
1644.374730   0.876398
1644.894807   0.880478
1645.414883   0.886181
1645.934960   0.888305
1646.455037   0.891726
1646.975114   0.899326
1647.495191   0.909717
1648.015267   0.899046
1648.535344   0.894034
1649.055421   0.894644
1649.575498   0.894140
1650.095575   0.894015
1650.615651   0.891031
1651.135728   0.887678
1651.655805   0.887440
1652.175882   0.887838
1652.695958   0.885000
1653.216035   0.879179
1653.736112   0.881418
1654.256189   0.881290
1654.776266   0.877066
1655.296342   0.874739
1655.816419   0.876621
1656.336496   0.871831
1656.856573   0.870307
1657.376650   0.869453
1657.896726   0.868056
1658.416803   0.866453
1658.936880   0.866168
1659.456957   0.864161
1659.977034   0.864788
1660.497110   0.862642
1661.017187   0.864926
1661.537264   0.864605
1662.057341   0.864914
1662.577418   0.864877
1663.097494   0.863708
1663.617571   0.866318
1664.137648   0.866344
1664.657725   0.866857
1665.177801   0.865030
1665.697878   0.869266
1666.217955   0.872500
1666.738032   0.867482
1667.258109   0.868289
1667.778185   0.873195
1668.298262   0.873519
1668.818339   0.878426
1669.338416   0.877866
1669.858493   0.879355
1670.378569   0.878271
1671.418723   0.897725
1671.938800   0.881108
1672.458877   0.888610
1672.978953   0.890621
1673.499030   0.891285
1674.019107   0.892299
1674.539184   0.893963
1675.059261   0.895979
1675.579337   0.899699
1676.099414   0.900431
1676.619491   0.900757
1677.139568   0.899752
1677.659644   0.903551
1678.179721   0.905863
1678.699798   0.903817
1679.219875   0.904891
1679.739952   0.907525
1680.260028   0.908408
1680.780105   0.904992
1681.300182   0.908802
1681.820259   0.910645
1682.340336   0.906482
1682.860412   0.905477
1683.380489   0.905137
1683.900566   0.905886
1684.420643   0.909385
1684.940720   0.906476
1685.460796   0.903396
1685.980873   0.899103
1686.500950   0.901034
1687.021027   0.898873
1687.541103   0.896200
1688.061180   0.895443
1688.581257   0.893578
1689.101334   0.892082
1689.621411   0.889206
1690.141487   0.885345
1690.661564   0.882289
1691.181641   0.880286
1691.701718   0.878549
1692.221795   0.873400
1692.741871   0.869050
1693.261948   0.867050
1693.782025   0.863982
1694.302102   0.859680
1694.822179   0.856035
1695.342255   0.853596
1695.862332   0.849659
1696.382409   0.845468
1696.902486   0.840667
1697.422563   0.835966
1697.942639   0.833096
1698.462716   0.827416
1698.982793   0.821796
1699.502870   0.821692
1700.022946   0.818985
1700.543023   0.811335
1701.063100   0.807130
1701.583177   0.806703
1702.103254   0.803526
1702.623330   0.797811
1703.143407   0.795272
1703.663484   0.791943
1704.183561   0.788493
1704.703638   0.784769
1705.223714   0.780052
1705.743791   0.777617
1706.263868   0.774290
1706.783945   0.771898
1707.304022   0.769965
1707.824098   0.767228
1708.344175   0.763910
1708.864252   0.761016
1709.384329   0.758966
1709.904406   0.756888
1710.424482   0.755576
1710.944559   0.752863
1711.464636   0.750035
1711.984713   0.747755
1712.504789   0.746870
1713.024866   0.746298
1713.544943   0.744847
1714.065020   0.744155
1714.585097   0.743687
1715.105173   0.742706
1715.625250   0.740323
1716.145327   0.740835
1716.665404   0.742915
1717.185481   0.742760
1717.705557   0.742120
1718.225634   0.740075
1718.745711   0.738839
1719.265788   0.741480
1719.785865   0.740797
1720.305941   0.740370
1720.826018   0.743165
1721.346095   0.743846
1721.866172   0.741381
1722.386248   0.741935
1722.906325   0.744031
1723.426402   0.742958
1723.946479   0.744088
1724.466556   0.745201
1724.986632   0.747121
1725.506709   0.747888
1726.026786   0.750346
1726.546863   0.749799
1727.066940   0.748815
1727.587016   0.748509
1728.107093   0.749921
1728.627170   0.749997
1729.147247   0.749943
1729.667324   0.746959
1730.187400   0.749378
1730.707477   0.745621
1731.227554   0.745169
1731.747631   0.743809
1732.267708   0.741051
1732.787784   0.738356
1733.307861   0.736911
1733.827938   0.733067
1734.348015   0.729352
1734.868091   0.723076
1735.388168   0.719338
1735.908245   0.715960
1736.428322   0.708498
1736.948399   0.703058
1737.468475   0.695341
1737.988552   0.685351
1738.508629   0.677414
1739.028706   0.668086
1739.548783   0.659519
1740.068859   0.650100
1740.588936   0.638760
1741.109013   0.627581
1741.629090   0.615456
1742.149167   0.601100
1742.669243   0.588505
1743.189320   0.578715
1743.709397   0.566689
1744.229474   0.552030
1744.749551   0.538978
1745.269627   0.524253
1745.789704   0.510300
1746.309781   0.496102
1746.829858   0.482265
1747.349934   0.468433
1747.870011   0.454778
1748.390088   0.441014
1748.910165   0.426277
1749.430242   0.412681
1749.950318   0.400099
1750.470395   0.385503
1750.990472   0.372965
1751.510549   0.360210
1752.030626   0.348848
1752.550702   0.336186
1753.070779   0.324866
1753.590856   0.313256
1754.110933   0.301741
1754.631010   0.290500
1755.151086   0.280124
1755.671163   0.269403
1756.191240   0.259680
1756.711317   0.249918
1757.231393   0.241265
1757.751470   0.231801
1758.271547   0.223017
1758.791624   0.215266
1759.311701   0.207357
1759.831777   0.199631
1760.351854   0.192191
1760.871931   0.185059
1761.392008   0.177900
1761.912085   0.171471
1762.432161   0.165880
1762.952238   0.159237
1763.472315   0.152712
1763.992392   0.147223
1764.512469   0.142549
1765.032545   0.137685
1765.552622   0.132054
1766.072699   0.128137
1766.592776   0.123865
1767.112853   0.119816
1767.632929   0.115578
1768.153006   0.111399
1768.673083   0.107447
1769.193160   0.104122
1769.713236   0.100744
1770.233313   0.097342
1770.753390   0.094097
1771.273467   0.091203
1771.793544   0.087777
1772.313620   0.085819
1772.833697   0.082067
1773.353774   0.080023
1773.873851   0.077661
1774.393928   0.074844
1774.914004   0.072403
1775.434081   0.070894
1775.954158   0.068882
1776.474235   0.066976
1776.994312   0.065457
1777.514388   0.063325
1778.034465   0.061134
1778.554542   0.059818
1779.074619   0.057981
1779.594696   0.056522
1780.114772   0.054731
1780.634849   0.052791
1781.154926   0.051860
1781.675003   0.050859
1782.195079   0.049619
1782.715156   0.048316
1783.235233   0.047139
1783.755310   0.046295
1784.275387   0.044848
1784.795463   0.043899
1785.315540   0.043530
1785.835617   0.043101
1786.355694   0.041940
1786.875771   0.041049
1787.395847   0.039983
1787.915924   0.039014
1788.436001   0.038407
1788.956078   0.038137
1789.476155   0.037302
1789.996231   0.037067
1790.516308   0.036868
1791.036385   0.036483
1791.556462   0.035809
1792.076539   0.035903
1792.596615   0.036320
1793.116692   0.036190
1793.636769   0.036203
1794.156846   0.036710
1794.676922   0.036394
1795.196999   0.036871
1795.717076   0.036955
1796.237153   0.036485
1796.757230   0.037546
1797.277306   0.038585
1797.797383   0.038890
1798.317460   0.039712
1798.837537   0.040739
1799.357614   0.041195
1799.877690   0.042350
1800.397767   0.044125
1800.917844   0.045639
1801.437921   0.047342
1801.957998   0.050004
1802.478074   0.051762
1802.998151   0.053203
1803.518228   0.055176
1804.038305   0.056276
1804.558381   0.058323
1805.078458   0.060311
1805.598535   0.063366
1806.118612   0.064713
1806.638689   0.067172
1807.158765   0.070586
1807.678842   0.073728
1808.198919   0.073485
1808.718996   0.079113
1809.239073   0.086561
1809.759149   0.087403
1810.279226   0.089024
1810.799303   0.092251
1811.319380   0.098647
1811.839457   0.102197
1812.359533   0.109156
1812.879610   0.110364
1813.399687   0.117710
1813.919764   0.123218
1814.439841   0.127966
1814.959917   0.130998
1815.479994   0.137697
1816.000071   0.139136
1816.520148   0.144683
1817.040224   0.150786
1817.560301   0.151815
1818.080378   0.161711
1818.600455   0.168135
1819.120532   0.171151
1819.640608   0.174193
1820.160685   0.181284
1820.680762   0.175749
1821.200839   0.182133
1821.720916   0.186702
1822.240992   0.189205
1822.761069   0.188367
1823.281146   0.188331
1823.801223   0.197087
