# Transmission of HK Filter (BARR ED152; Gemini ID HK_G0806, F2)
# Wavelength (nm) Transmission at 77K (1=100%)
#
1150.0 0.0001
1150.5 0.0001
1151.0 0.0001
1151.5 0.0000
1152.0 0.0001
1152.5 0.0001
1153.0 0.0001
1153.5 0.0001
1154.0 0.0000
1154.5 0.0001
1155.0 0.0000
1155.5 0.0001
1156.0 0.0001
1156.5 0.0000
1157.0 0.0001
1157.5 0.0000
1158.0 0.0001
1158.5 0.0001
1159.0 0.0000
1159.5 0.0000
1160.0 0.0001
1160.5 0.0001
1161.0 0.0000
1161.5 0.0001
1162.0 0.0001
1162.5 0.0001
1163.0 0.0001
1163.5 0.0000
1164.0 0.0001
1164.5 0.0001
1165.0 0.0001
1165.5 0.0001
1166.0 0.0001
1166.5 0.0000
1167.0 0.0000
1167.5 0.0001
1168.0 0.0001
1168.5 0.0000
1169.0 0.0001
1169.5 0.0000
1170.0 0.0001
1170.5 0.0000
1171.0 0.0000
1171.5 0.0000
1172.0 0.0001
1172.5 0.0000
1173.0 0.0001
1173.5 0.0001
1174.0 0.0000
1174.5 0.0001
1175.0 0.0002
1175.5 0.0001
1176.0 0.0001
1176.5 0.0001
1177.0 0.0001
1177.5 0.0001
1178.0 0.0001
1178.5 0.0000
1179.0 0.0000
1179.5 0.0001
1180.0 0.0001
1180.5 0.0001
1181.0 0.0000
1181.5 0.0001
1182.0 0.0001
1182.5 0.0001
1183.0 0.0001
1183.5 0.0000
1184.0 0.0001
1184.5 0.0001
1185.0 0.0001
1185.5 0.0000
1186.0 0.0000
1186.5 0.0001
1187.0 0.0001
1187.5 0.0001
1188.0 0.0001
1188.5 0.0002
1189.0 0.0000
1189.5 0.0000
1190.0 0.0000
1190.5 0.0000
1191.0 0.0001
1191.5 0.0001
1192.0 0.0001
1192.5 0.0000
1193.0 0.0001
1193.5 0.0001
1194.0 0.0000
1194.5 0.0001
1195.0 0.0001
1195.5 0.0002
1196.0 0.0001
1196.5 0.0001
1197.0 0.0000
1197.5 0.0001
1198.0 0.0001
1198.5 0.0001
1199.0 0.0000
1199.5 0.0001
1200.0 0.0001
1200.5 0.0002
1201.0 0.0001
1201.5 0.0000
1202.0 0.0001
1202.5 0.0001
1203.0 0.0001
1203.5 0.0001
1204.0 0.0001
1204.5 0.0000
1205.0 0.0000
1205.5 0.0000
1206.0 0.0001
1206.5 0.0001
1207.0 0.0001
1207.5 0.0001
1208.0 0.0001
1208.5 0.0001
1209.0 0.0001
1209.5 0.0000
1210.0 0.0001
1210.5 0.0002
1211.0 0.0001
1211.5 0.0001
1212.0 0.0001
1212.5 0.0001
1213.0 0.0001
1213.5 0.0001
1214.0 0.0002
1214.5 0.0002
1215.0 0.0001
1215.5 0.0002
1216.0 0.0002
1216.5 0.0001
1217.0 0.0001
1217.5 0.0002
1218.0 0.0001
1218.5 0.0001
1219.0 0.0001
1219.5 0.0002
1220.0 0.0001
1220.5 0.0002
1221.0 0.0002
1221.5 0.0002
1222.0 0.0002
1222.5 0.0003
1223.0 0.0002
1223.5 0.0001
1224.0 0.0003
1224.5 0.0003
1225.0 0.0003
1225.5 0.0003
1226.0 0.0003
1226.5 0.0003
1227.0 0.0003
1227.5 0.0004
1228.0 0.0004
1228.5 0.0004
1229.0 0.0005
1229.5 0.0004
1230.0 0.0006
1230.5 0.0006
1231.0 0.0007
1231.5 0.0006
1232.0 0.0008
1232.5 0.0008
1233.0 0.0009
1233.5 0.0010
1234.0 0.0012
1234.5 0.0013
1235.0 0.0015
1235.5 0.0016
1236.0 0.0017
1236.5 0.0019
1237.0 0.0021
1237.5 0.0024
1238.0 0.0027
1238.5 0.0029
1239.0 0.0033
1239.5 0.0037
1240.0 0.0042
1240.5 0.0047
1241.0 0.0053
1241.5 0.0059
1242.0 0.0067
1242.5 0.0075
1243.0 0.0084
1243.5 0.0095
1244.0 0.0108
1244.5 0.0122
1245.0 0.0138
1245.5 0.0156
1246.0 0.0175
1246.5 0.0198
1247.0 0.0226
1247.5 0.0255
1248.0 0.0289
1248.5 0.0326
1249.0 0.0368
1249.5 0.0417
1250.0 0.0470
1250.5 0.0534
1251.0 0.0601
1251.5 0.0681
1252.0 0.0770
1252.5 0.0866
1253.0 0.0981
1253.5 0.1108
1254.0 0.1250
1254.5 0.1407
1255.0 0.1584
1255.5 0.1783
1256.0 0.1999
1256.5 0.2248
1257.0 0.2516
1257.5 0.2806
1258.0 0.3118
1258.5 0.3447
1259.0 0.3808
1259.5 0.4171
1260.0 0.4560
1260.5 0.4957
1261.0 0.5341
1261.5 0.5714
1262.0 0.6078
1262.5 0.6434
1263.0 0.6747
1263.5 0.7045
1264.0 0.7313
1264.5 0.7543
1265.0 0.7734
1265.5 0.7897
1266.0 0.8050
1266.5 0.8168
1267.0 0.8261
1267.5 0.8341
1268.0 0.8414
1268.5 0.8467
1269.0 0.8511
1269.5 0.8561
1270.0 0.8607
1270.5 0.8638
1271.0 0.8672
1271.5 0.8718
1272.0 0.8756
1272.5 0.8795
1273.0 0.8830
1273.5 0.8878
1274.0 0.8918
1274.5 0.8948
1275.0 0.8990
1275.5 0.9038
1276.0 0.9060
1276.5 0.9090
1277.0 0.9125
1277.5 0.9150
1278.0 0.9166
1278.5 0.9185
1279.0 0.9202
1279.5 0.9210
1280.0 0.9204
1280.5 0.9206
1281.0 0.9210
1281.5 0.9188
1282.0 0.9163
1282.5 0.9150
1283.0 0.9122
1283.5 0.9080
1284.0 0.9051
1284.5 0.9012
1285.0 0.8964
1285.5 0.8902
1286.0 0.8851
1286.5 0.8798
1287.0 0.8735
1287.5 0.8665
1288.0 0.8601
1288.5 0.8531
1289.0 0.8452
1289.5 0.8374
1290.0 0.8314
1290.5 0.8240
1291.0 0.8160
1291.5 0.8088
1292.0 0.8022
1292.5 0.7950
1293.0 0.7886
1293.5 0.7828
1294.0 0.7778
1294.5 0.7716
1295.0 0.7669
1295.5 0.7634
1296.0 0.7602
1296.5 0.7571
1297.0 0.7551
1297.5 0.7547
1298.0 0.7538
1298.5 0.7534
1299.0 0.7556
1299.5 0.7580
1300.0 0.7593
1300.5 0.7631
1301.0 0.7681
1301.5 0.7736
1302.0 0.7783
1302.5 0.7854
1303.0 0.7932
1303.5 0.8000
1304.0 0.8081
1304.5 0.8179
1305.0 0.8278
1305.5 0.8365
1306.0 0.8447
1306.5 0.8553
1307.0 0.8646
1307.5 0.8730
1308.0 0.8823
1308.5 0.8914
1309.0 0.8984
1309.5 0.9041
1310.0 0.9109
1310.5 0.9175
1311.0 0.9206
1311.5 0.9235
1312.0 0.9267
1312.5 0.9281
1313.0 0.9265
1313.5 0.9264
1314.0 0.9257
1314.5 0.9225
1315.0 0.9185
1315.5 0.9159
1316.0 0.9123
1316.5 0.9066
1317.0 0.9017
1317.5 0.8985
1318.0 0.8935
1318.5 0.8877
1319.0 0.8841
1319.5 0.8806
1320.0 0.8764
1320.5 0.8727
1321.0 0.8713
1321.5 0.8691
1322.0 0.8669
1322.5 0.8658
1323.0 0.8669
1323.5 0.8667
1324.0 0.8672
1324.5 0.8688
1325.0 0.8715
1325.5 0.8732
1326.0 0.8758
1326.5 0.8803
1327.0 0.8843
1327.5 0.8872
1328.0 0.8912
1328.5 0.8963
1329.0 0.9006
1329.5 0.9037
1330.0 0.9088
1330.5 0.9131
1331.0 0.9157
1331.5 0.9184
1332.0 0.9219
1332.5 0.9250
1333.0 0.9256
1333.5 0.9267
1334.0 0.9291
1334.5 0.9288
1335.0 0.9276
1335.5 0.9282
1336.0 0.9276
1336.5 0.9254
1337.0 0.9227
1337.5 0.9217
1338.0 0.9198
1338.5 0.9163
1339.0 0.9138
1339.5 0.9124
1340.0 0.9095
1340.5 0.9059
1341.0 0.9045
1341.5 0.9032
1342.0 0.9002
1342.5 0.8986
1343.0 0.8982
1343.5 0.8968
1344.0 0.8954
1344.5 0.8951
1345.0 0.8965
1345.5 0.8961
1346.0 0.8957
1346.5 0.8975
1347.0 0.8990
1347.5 0.8992
1348.0 0.9006
1348.5 0.9026
1349.0 0.9047
1349.5 0.9043
1350.0 0.9061
1350.5 0.9086
1351.0 0.9090
1351.5 0.9088
1352.0 0.9098
1352.5 0.9103
1353.0 0.9096
1353.5 0.9078
1354.0 0.9078
1354.5 0.9061
1355.0 0.9024
1355.5 0.8993
1356.0 0.8975
1356.5 0.8933
1357.0 0.8880
1357.5 0.8841
1358.0 0.8795
1358.5 0.8730
1359.0 0.8670
1359.5 0.8621
1360.0 0.8568
1360.5 0.8501
1361.0 0.8438
1361.5 0.8376
1362.0 0.8297
1362.5 0.8237
1363.0 0.8197
1363.5 0.8160
1364.0 0.8098
1364.5 0.8041
1365.0 0.7996
1365.5 0.7964
1366.0 0.7926
1366.5 0.7905
1367.0 0.7890
1367.5 0.7860
1368.0 0.7836
1368.5 0.7838
1369.0 0.7836
1369.5 0.7831
1370.0 0.7833
1370.5 0.7852
1371.0 0.7873
1371.5 0.7889
1372.0 0.7912
1372.5 0.7957
1373.0 0.7983
1373.5 0.8015
1374.0 0.8072
1374.5 0.8122
1375.0 0.8166
1375.5 0.8214
1376.0 0.8275
1376.5 0.8336
1377.0 0.8393
1377.5 0.8455
1378.0 0.8524
1378.5 0.8578
1379.0 0.8633
1379.5 0.8692
1380.0 0.8762
1380.5 0.8813
1381.0 0.8866
1381.5 0.8920
1382.0 0.8955
1382.5 0.8994
1383.0 0.9042
1383.5 0.9076
1384.0 0.9100
1384.5 0.9116
1385.0 0.9133
1385.5 0.9146
1386.0 0.9145
1386.5 0.9143
1387.0 0.9147
1387.5 0.9131
1388.0 0.9103
1388.5 0.9086
1389.0 0.9074
1389.5 0.9038
1390.0 0.9011
1390.5 0.8983
1391.0 0.8953
1391.5 0.8912
1392.0 0.8872
1392.5 0.8830
1393.0 0.8796
1393.5 0.8761
1394.0 0.8726
1394.5 0.8698
1395.0 0.8655
1395.5 0.8618
1396.0 0.8584
1396.5 0.8558
1397.0 0.8525
1397.5 0.8510
1398.0 0.8495
1398.5 0.8483
1399.0 0.8465
1399.5 0.8454
1400.0 0.8449
1400.5 0.8439
1401.0 0.8440
1401.5 0.8441
1402.0 0.8459
1402.5 0.8466
1403.0 0.8478
1403.5 0.8499
1404.0 0.8520
1404.5 0.8534
1405.0 0.8565
1405.5 0.8596
1406.0 0.8619
1406.5 0.8647
1407.0 0.8680
1407.5 0.8719
1408.0 0.8747
1408.5 0.8777
1409.0 0.8813
1409.5 0.8851
1410.0 0.8875
1410.5 0.8905
1411.0 0.8940
1411.5 0.8966
1412.0 0.8982
1412.5 0.9005
1413.0 0.9031
1413.5 0.9040
1414.0 0.9053
1414.5 0.9064
1415.0 0.9068
1415.5 0.9071
1416.0 0.9066
1416.5 0.9071
1417.0 0.9069
1417.5 0.9051
1418.0 0.9040
1418.5 0.9034
1419.0 0.9008
1419.5 0.8985
1420.0 0.8973
1420.5 0.8954
1421.0 0.8925
1421.5 0.8903
1422.0 0.8888
1422.5 0.8867
1423.0 0.8837
1423.5 0.8813
1424.0 0.8796
1424.5 0.8779
1425.0 0.8750
1425.5 0.8740
1426.0 0.8733
1426.5 0.8710
1427.0 0.8701
1427.5 0.8699
1428.0 0.8692
1428.5 0.8681
1429.0 0.8683
1429.5 0.8693
1430.0 0.8688
1430.5 0.8691
1431.0 0.8703
1431.5 0.8718
1432.0 0.8722
1432.5 0.8728
1433.0 0.8750
1433.5 0.8770
1434.0 0.8772
1434.5 0.8798
1435.0 0.8821
1435.5 0.8832
1436.0 0.8840
1436.5 0.8863
1437.0 0.8885
1437.5 0.8894
1438.0 0.8906
1438.5 0.8927
1439.0 0.8939
1439.5 0.8940
1440.0 0.8954
1440.5 0.8971
1441.0 0.8972
1441.5 0.8963
1442.0 0.8979
1442.5 0.8976
1443.0 0.8969
1443.5 0.8970
1444.0 0.8976
1444.5 0.8970
1445.0 0.8955
1445.5 0.8951
1446.0 0.8955
1446.5 0.8942
1447.0 0.8934
1447.5 0.8931
1448.0 0.8930
1448.5 0.8915
1449.0 0.8908
1449.5 0.8917
1450.0 0.8910
1450.5 0.8900
1451.0 0.8903
1451.5 0.8914
1452.0 0.8909
1452.5 0.8914
1453.0 0.8931
1453.5 0.8944
1454.0 0.8945
1454.5 0.8956
1455.0 0.8982
1455.5 0.9004
1456.0 0.9012
1456.5 0.9039
1457.0 0.9069
1457.5 0.9086
1458.0 0.9104
1458.5 0.9143
1459.0 0.9172
1459.5 0.9189
1460.0 0.9217
1460.5 0.9253
1461.0 0.9277
1461.5 0.9298
1462.0 0.9326
1462.5 0.9359
1463.0 0.9374
1463.5 0.9384
1464.0 0.9415
1464.5 0.9436
1465.0 0.9434
1465.5 0.9445
1466.0 0.9465
1466.5 0.9462
1467.0 0.9455
1467.5 0.9454
1468.0 0.9455
1468.5 0.9437
1469.0 0.9419
1469.5 0.9405
1470.0 0.9396
1470.5 0.9361
1471.0 0.9337
1471.5 0.9320
1472.0 0.9292
1472.5 0.9246
1473.0 0.9222
1473.5 0.9199
1474.0 0.9159
1474.5 0.9118
1475.0 0.9095
1475.5 0.9064
1476.0 0.9023
1476.5 0.8990
1477.0 0.8965
1477.5 0.8938
1478.0 0.8900
1478.5 0.8877
1479.0 0.8867
1479.5 0.8831
1480.0 0.8810
1480.5 0.8803
1481.0 0.8787
1481.5 0.8768
1482.0 0.8762
1482.5 0.8763
1483.0 0.8755
1483.5 0.8749
1484.0 0.8751
1484.5 0.8763
1485.0 0.8764
1485.5 0.8768
1486.0 0.8786
1486.5 0.8807
1487.0 0.8805
1487.5 0.8829
1488.0 0.8854
1488.5 0.8873
1489.0 0.8886
1489.5 0.8916
1490.0 0.8940
1490.5 0.8962
1491.0 0.8985
1491.5 0.9011
1492.0 0.9039
1492.5 0.9060
1493.0 0.9077
1493.5 0.9114
1494.0 0.9134
1494.5 0.9145
1495.0 0.9176
1495.5 0.9203
1496.0 0.9210
1496.5 0.9228
1497.0 0.9249
1497.5 0.9264
1498.0 0.9277
1498.5 0.9282
1499.0 0.9300
1499.5 0.9306
1500.0 0.9303
1500.5 0.9313
1501.0 0.9328
1501.5 0.9323
1502.0 0.9318
1502.5 0.9323
1503.0 0.9325
1503.5 0.9318
1504.0 0.9315
1504.5 0.9319
1505.0 0.9313
1505.5 0.9301
1506.0 0.9298
1506.5 0.9303
1507.0 0.9295
1507.5 0.9287
1508.0 0.9283
1508.5 0.9280
1509.0 0.9273
1509.5 0.9264
1510.0 0.9271
1510.5 0.9270
1511.0 0.9258
1511.5 0.9259
1512.0 0.9258
1512.5 0.9260
1513.0 0.9255
1513.5 0.9256
1514.0 0.9261
1514.5 0.9262
1515.0 0.9254
1515.5 0.9267
1516.0 0.9274
1516.5 0.9268
1517.0 0.9275
1517.5 0.9283
1518.0 0.9287
1518.5 0.9288
1519.0 0.9298
1519.5 0.9310
1520.0 0.9311
1520.5 0.9312
1521.0 0.9324
1521.5 0.9335
1522.0 0.9338
1522.5 0.9339
1523.0 0.9353
1523.5 0.9362
1524.0 0.9361
1524.5 0.9370
1525.0 0.9384
1525.5 0.9389
1526.0 0.9390
1526.5 0.9396
1527.0 0.9414
1527.5 0.9415
1528.0 0.9421
1528.5 0.9429
1529.0 0.9442
1529.5 0.9446
1530.0 0.9447
1530.5 0.9466
1531.0 0.9471
1531.5 0.9468
1532.0 0.9481
1532.5 0.9493
1533.0 0.9496
1533.5 0.9497
1534.0 0.9505
1534.5 0.9516
1535.0 0.9519
1535.5 0.9513
1536.0 0.9529
1536.5 0.9536
1537.0 0.9523
1537.5 0.9528
1538.0 0.9542
1538.5 0.9538
1539.0 0.9528
1539.5 0.9535
1540.0 0.9536
1540.5 0.9526
1541.0 0.9519
1541.5 0.9526
1542.0 0.9522
1542.5 0.9502
1543.0 0.9497
1543.5 0.9497
1544.0 0.9488
1544.5 0.9461
1545.0 0.9459
1545.5 0.9452
1546.0 0.9429
1546.5 0.9408
1547.0 0.9405
1547.5 0.9390
1548.0 0.9363
1548.5 0.9340
1549.0 0.9335
1549.5 0.9315
1550.0 0.9283
1550.5 0.9271
1551.0 0.9260
1551.5 0.9233
1552.0 0.9205
1552.5 0.9198
1553.0 0.9186
1553.5 0.9152
1554.0 0.9139
1554.5 0.9133
1555.0 0.9112
1555.5 0.9086
1556.0 0.9080
1556.5 0.9077
1557.0 0.9055
1557.5 0.9037
1558.0 0.9038
1558.5 0.9033
1559.0 0.9016
1559.5 0.9011
1560.0 0.9016
1560.5 0.9014
1561.0 0.8999
1561.5 0.9007
1562.0 0.9017
1562.5 0.9014
1563.0 0.9007
1563.5 0.9027
1564.0 0.9037
1564.5 0.9040
1565.0 0.9041
1565.5 0.9068
1566.0 0.9073
1566.5 0.9078
1567.0 0.9094
1567.5 0.9119
1568.0 0.9131
1568.5 0.9129
1569.0 0.9154
1569.5 0.9178
1570.0 0.9180
1570.5 0.9196
1571.0 0.9222
1571.5 0.9238
1572.0 0.9242
1572.5 0.9259
1573.0 0.9291
1573.5 0.9297
1574.0 0.9301
1574.5 0.9324
1575.0 0.9343
1575.5 0.9345
1576.0 0.9355
1576.5 0.9375
1577.0 0.9386
1577.5 0.9380
1578.0 0.9394
1578.5 0.9413
1579.0 0.9416
1579.5 0.9414
1580.0 0.9426
1580.5 0.9436
1581.0 0.9429
1581.5 0.9432
1582.0 0.9446
1582.5 0.9447
1583.0 0.9440
1583.5 0.9443
1584.0 0.9453
1584.5 0.9453
1585.0 0.9446
1585.5 0.9453
1586.0 0.9461
1586.5 0.9451
1587.0 0.9445
1587.5 0.9461
1588.0 0.9459
1588.5 0.9454
1589.0 0.9454
1589.5 0.9464
1590.0 0.9461
1590.5 0.9454
1591.0 0.9462
1591.5 0.9473
1592.0 0.9462
1592.5 0.9460
1593.0 0.9466
1593.5 0.9474
1594.0 0.9463
1594.5 0.9463
1595.0 0.9469
1595.5 0.9465
1596.0 0.9455
1596.5 0.9463
1597.0 0.9469
1597.5 0.9453
1598.0 0.9447
1598.5 0.9448
1599.0 0.9443
1599.5 0.9430
1600.0 0.9424
1600.5 0.9421
1601.0 0.9409
1601.5 0.9390
1602.0 0.9387
1602.5 0.9379
1603.0 0.9359
1603.5 0.9336
1604.0 0.9329
1604.5 0.9315
1605.0 0.9287
1605.5 0.9269
1606.0 0.9252
1606.5 0.9233
1607.0 0.9203
1607.5 0.9183
1608.0 0.9169
1608.5 0.9142
1609.0 0.9113
1609.5 0.9094
1610.0 0.9083
1610.5 0.9049
1611.0 0.9021
1611.5 0.9016
1612.0 0.8986
1612.5 0.8959
1613.0 0.8944
1613.5 0.8930
1614.0 0.8909
1614.5 0.8891
1615.0 0.8878
1615.5 0.8868
1616.0 0.8851
1616.5 0.8833
1617.0 0.8835
1617.5 0.8831
1618.0 0.8814
1618.5 0.8815
1619.0 0.8818
1619.5 0.8814
1620.0 0.8814
1620.5 0.8821
1621.0 0.8834
1621.5 0.8834
1622.0 0.8837
1622.5 0.8859
1623.0 0.8874
1623.5 0.8885
1624.0 0.8897
1624.5 0.8925
1625.0 0.8943
1625.5 0.8952
1626.0 0.8982
1626.5 0.9014
1627.0 0.9034
1627.5 0.9052
1628.0 0.9087
1628.5 0.9116
1629.0 0.9138
1629.5 0.9163
1630.0 0.9199
1630.5 0.9229
1631.0 0.9244
1631.5 0.9275
1632.0 0.9309
1632.5 0.9333
1633.0 0.9347
1633.5 0.9378
1634.0 0.9411
1634.5 0.9417
1635.0 0.9437
1635.5 0.9463
1636.0 0.9478
1636.5 0.9482
1637.0 0.9497
1637.5 0.9517
1638.0 0.9522
1638.5 0.9514
1639.0 0.9524
1639.5 0.9533
1640.0 0.9522
1640.5 0.9514
1641.0 0.9518
1641.5 0.9513
1642.0 0.9491
1642.5 0.9481
1643.0 0.9475
1643.5 0.9460
1644.0 0.9432
1644.5 0.9418
1645.0 0.9409
1645.5 0.9383
1646.0 0.9348
1646.5 0.9344
1647.0 0.9325
1647.5 0.9287
1648.0 0.9265
1648.5 0.9254
1649.0 0.9223
1649.5 0.9196
1650.0 0.9178
1650.5 0.9164
1651.0 0.9136
1651.5 0.9107
1652.0 0.9099
1652.5 0.9085
1653.0 0.9056
1653.5 0.9037
1654.0 0.9036
1654.5 0.9019
1655.0 0.8995
1655.5 0.8993
1656.0 0.8994
1656.5 0.8972
1657.0 0.8963
1657.5 0.8967
1658.0 0.8965
1658.5 0.8958
1659.0 0.8947
1659.5 0.8966
1660.0 0.8967
1660.5 0.8953
1661.0 0.8961
1661.5 0.8982
1662.0 0.8979
1662.5 0.8973
1663.0 0.9000
1663.5 0.9011
1664.0 0.9007
1664.5 0.9018
1665.0 0.9044
1665.5 0.9050
1666.0 0.9053
1666.5 0.9068
1667.0 0.9092
1667.5 0.9097
1668.0 0.9097
1668.5 0.9125
1669.0 0.9142
1669.5 0.9140
1670.0 0.9154
1670.5 0.9178
1671.0 0.9185
1671.5 0.9183
1672.0 0.9200
1672.5 0.9221
1673.0 0.9220
1673.5 0.9223
1674.0 0.9238
1674.5 0.9252
1675.0 0.9244
1675.5 0.9247
1676.0 0.9271
1676.5 0.9273
1677.0 0.9259
1677.5 0.9269
1678.0 0.9286
1678.5 0.9275
1679.0 0.9272
1679.5 0.9284
1680.0 0.9288
1680.5 0.9274
1681.0 0.9276
1681.5 0.9289
1682.0 0.9293
1682.5 0.9276
1683.0 0.9283
1683.5 0.9295
1684.0 0.9283
1684.5 0.9278
1685.0 0.9290
1685.5 0.9295
1686.0 0.9281
1686.5 0.9287
1687.0 0.9300
1687.5 0.9297
1688.0 0.9292
1688.5 0.9303
1689.0 0.9314
1689.5 0.9310
1690.0 0.9306
1690.5 0.9317
1691.0 0.9334
1691.5 0.9331
1692.0 0.9330
1692.5 0.9352
1693.0 0.9357
1693.5 0.9349
1694.0 0.9365
1694.5 0.9384
1695.0 0.9382
1695.5 0.9383
1696.0 0.9398
1696.5 0.9411
1697.0 0.9407
1697.5 0.9414
1698.0 0.9431
1698.5 0.9438
1699.0 0.9434
1699.5 0.9445
1700.0 0.9456
1700.5 0.9460
1701.0 0.9458
1701.5 0.9466
1702.0 0.9474
1702.5 0.9472
1703.0 0.9469
1703.5 0.9477
1704.0 0.9481
1704.5 0.9476
1705.0 0.9475
1705.5 0.9481
1706.0 0.9471
1706.5 0.9462
1707.0 0.9464
1707.5 0.9460
1708.0 0.9456
1708.5 0.9442
1709.0 0.9437
1709.5 0.9433
1710.0 0.9418
1710.5 0.9411
1711.0 0.9405
1711.5 0.9398
1712.0 0.9379
1712.5 0.9368
1713.0 0.9367
1713.5 0.9351
1714.0 0.9339
1714.5 0.9332
1715.0 0.9324
1715.5 0.9311
1716.0 0.9298
1716.5 0.9289
1717.0 0.9287
1717.5 0.9277
1718.0 0.9266
1718.5 0.9260
1719.0 0.9257
1719.5 0.9246
1720.0 0.9236
1720.5 0.9239
1721.0 0.9235
1721.5 0.9226
1722.0 0.9221
1722.5 0.9230
1723.0 0.9227
1723.5 0.9222
1724.0 0.9224
1724.5 0.9234
1725.0 0.9227
1725.5 0.9234
1726.0 0.9244
1726.5 0.9247
1727.0 0.9245
1727.5 0.9256
1728.0 0.9268
1728.5 0.9278
1729.0 0.9276
1729.5 0.9292
1730.0 0.9305
1730.5 0.9313
1731.0 0.9315
1731.5 0.9335
1732.0 0.9348
1732.5 0.9352
1733.0 0.9358
1733.5 0.9380
1734.0 0.9383
1734.5 0.9387
1735.0 0.9404
1735.5 0.9412
1736.0 0.9421
1736.5 0.9421
1737.0 0.9436
1737.5 0.9443
1738.0 0.9444
1738.5 0.9444
1739.0 0.9457
1739.5 0.9458
1740.0 0.9451
1740.5 0.9451
1741.0 0.9461
1741.5 0.9452
1742.0 0.9444
1742.5 0.9449
1743.0 0.9444
1743.5 0.9431
1744.0 0.9423
1744.5 0.9419
1745.0 0.9411
1745.5 0.9388
1746.0 0.9380
1746.5 0.9377
1747.0 0.9355
1747.5 0.9332
1748.0 0.9329
1748.5 0.9314
1749.0 0.9286
1749.5 0.9273
1750.0 0.9259
1750.5 0.9240
1751.0 0.9212
1751.5 0.9198
1752.0 0.9186
1752.5 0.9158
1753.0 0.9131
1753.5 0.9122
1754.0 0.9108
1754.5 0.9080
1755.0 0.9064
1755.5 0.9052
1756.0 0.9031
1756.5 0.9005
1757.0 0.8992
1757.5 0.8985
1758.0 0.8964
1758.5 0.8940
1759.0 0.8936
1759.5 0.8926
1760.0 0.8909
1760.5 0.8894
1761.0 0.8895
1761.5 0.8883
1762.0 0.8864
1762.5 0.8860
1763.0 0.8866
1763.5 0.8850
1764.0 0.8842
1764.5 0.8844
1765.0 0.8847
1765.5 0.8833
1766.0 0.8835
1766.5 0.8848
1767.0 0.8847
1767.5 0.8839
1768.0 0.8848
1768.5 0.8864
1769.0 0.8861
1769.5 0.8862
1770.0 0.8880
1770.5 0.8892
1771.0 0.8886
1771.5 0.8899
1772.0 0.8920
1772.5 0.8926
1773.0 0.8931
1773.5 0.8949
1774.0 0.8962
1774.5 0.8972
1775.0 0.8980
1775.5 0.9000
1776.0 0.9020
1776.5 0.9024
1777.0 0.9037
1777.5 0.9062
1778.0 0.9074
1778.5 0.9081
1779.0 0.9096
1779.5 0.9122
1780.0 0.9133
1780.5 0.9137
1781.0 0.9159
1781.5 0.9178
1782.0 0.9185
1782.5 0.9198
1783.0 0.9216
1783.5 0.9232
1784.0 0.9234
1784.5 0.9248
1785.0 0.9273
1785.5 0.9279
1786.0 0.9286
1786.5 0.9304
1787.0 0.9315
1787.5 0.9321
1788.0 0.9326
1788.5 0.9343
1789.0 0.9358
1789.5 0.9354
1790.0 0.9361
1790.5 0.9375
1791.0 0.9382
1791.5 0.9385
1792.0 0.9396
1792.5 0.9407
1793.0 0.9403
1793.5 0.9405
1794.0 0.9417
1794.5 0.9424
1795.0 0.9421
1795.5 0.9425
1796.0 0.9431
1796.5 0.9437
1797.0 0.9425
1797.5 0.9436
1798.0 0.9443
1798.5 0.9444
1799.0 0.9433
1799.5 0.9440
1800.0 0.9446
1800.5 0.9437
1801.0 0.9437
1801.5 0.9442
1802.0 0.9439
1802.5 0.9432
1803.0 0.9429
1803.5 0.9436
1804.0 0.9434
1804.5 0.9425
1805.0 0.9424
1805.5 0.9426
1806.0 0.9412
1806.5 0.9409
1807.0 0.9411
1807.5 0.9408
1808.0 0.9397
1808.5 0.9393
1809.0 0.9390
1809.5 0.9385
1810.0 0.9379
1810.5 0.9368
1811.0 0.9372
1811.5 0.9360
1812.0 0.9346
1812.5 0.9346
1813.0 0.9345
1813.5 0.9324
1814.0 0.9326
1814.5 0.9324
1815.0 0.9315
1815.5 0.9300
1816.0 0.9296
1816.5 0.9291
1817.0 0.9287
1817.5 0.9272
1818.0 0.9269
1818.5 0.9268
1819.0 0.9253
1819.5 0.9242
1820.0 0.9243
1820.5 0.9240
1821.0 0.9222
1821.5 0.9219
1822.0 0.9218
1822.5 0.9208
1823.0 0.9202
1823.5 0.9205
1824.0 0.9199
1824.5 0.9194
1825.0 0.9182
1825.5 0.9183
1826.0 0.9189
1826.5 0.9175
1827.0 0.9175
1827.5 0.9180
1828.0 0.9171
1828.5 0.9165
1829.0 0.9166
1829.5 0.9177
1830.0 0.9166
1830.5 0.9166
1831.0 0.9172
1831.5 0.9176
1832.0 0.9169
1832.5 0.9176
1833.0 0.9180
1833.5 0.9190
1834.0 0.9174
1834.5 0.9185
1835.0 0.9198
1835.5 0.9196
1836.0 0.9197
1836.5 0.9209
1837.0 0.9218
1837.5 0.9214
1838.0 0.9219
1838.5 0.9229
1839.0 0.9240
1839.5 0.9234
1840.0 0.9240
1840.5 0.9253
1841.0 0.9262
1841.5 0.9255
1842.0 0.9271
1842.5 0.9280
1843.0 0.9275
1843.5 0.9286
1844.0 0.9300
1844.5 0.9298
1845.0 0.9293
1845.5 0.9304
1846.0 0.9313
1846.5 0.9312
1847.0 0.9310
1847.5 0.9321
1848.0 0.9325
1848.5 0.9325
1849.0 0.9327
1849.5 0.9338
1850.0 0.9336
1850.5 0.9326
1851.0 0.9330
1851.5 0.9339
1852.0 0.9332
1852.5 0.9326
1853.0 0.9331
1853.5 0.9333
1854.0 0.9323
1854.5 0.9320
1855.0 0.9325
1855.5 0.9326
1856.0 0.9308
1856.5 0.9309
1857.0 0.9312
1857.5 0.9306
1858.0 0.9295
1858.5 0.9295
1859.0 0.9295
1859.5 0.9282
1860.0 0.9276
1860.5 0.9276
1861.0 0.9270
1861.5 0.9261
1862.0 0.9259
1862.5 0.9257
1863.0 0.9255
1863.5 0.9237
1864.0 0.9238
1864.5 0.9237
1865.0 0.9226
1865.5 0.9216
1866.0 0.9228
1866.5 0.9217
1867.0 0.9211
1867.5 0.9204
1868.0 0.9214
1868.5 0.9205
1869.0 0.9196
1869.5 0.9198
1870.0 0.9199
1870.5 0.9194
1871.0 0.9186
1871.5 0.9196
1872.0 0.9199
1872.5 0.9187
1873.0 0.9190
1873.5 0.9200
1874.0 0.9191
1874.5 0.9192
1875.0 0.9197
1875.5 0.9201
1876.0 0.9199
1876.5 0.9197
1877.0 0.9201
1877.5 0.9212
1878.0 0.9202
1878.5 0.9206
1879.0 0.9218
1879.5 0.9213
1880.0 0.9211
1880.5 0.9225
1881.0 0.9232
1881.5 0.9222
1882.0 0.9226
1882.5 0.9237
1883.0 0.9235
1883.5 0.9235
1884.0 0.9243
1884.5 0.9245
1885.0 0.9248
1885.5 0.9244
1886.0 0.9254
1886.5 0.9259
1887.0 0.9252
1887.5 0.9249
1888.0 0.9258
1888.5 0.9257
1889.0 0.9256
1889.5 0.9254
1890.0 0.9260
1890.5 0.9254
1891.0 0.9250
1891.5 0.9250
1892.0 0.9254
1892.5 0.9248
1893.0 0.9239
1893.5 0.9242
1894.0 0.9241
1894.5 0.9232
1895.0 0.9232
1895.5 0.9232
1896.0 0.9221
1896.5 0.9214
1897.0 0.9215
1897.5 0.9216
1898.0 0.9206
1898.5 0.9201
1899.0 0.9198
1899.5 0.9193
1900.0 0.9185
1900.5 0.9181
1901.0 0.9181
1901.5 0.9175
1902.0 0.9165
1902.5 0.9163
1903.0 0.9164
1903.5 0.9155
1904.0 0.9152
1904.5 0.9150
1905.0 0.9149
1905.5 0.9142
1906.0 0.9141
1906.5 0.9145
1907.0 0.9136
1907.5 0.9138
1908.0 0.9136
1908.5 0.9141
1909.0 0.9136
1909.5 0.9133
1910.0 0.9143
1910.5 0.9146
1911.0 0.9144
1911.5 0.9149
1912.0 0.9154
1912.5 0.9161
1913.0 0.9155
1913.5 0.9164
1914.0 0.9172
1914.5 0.9175
1915.0 0.9177
1915.5 0.9189
1916.0 0.9200
1916.5 0.9198
1917.0 0.9204
1917.5 0.9223
1918.0 0.9220
1918.5 0.9217
1919.0 0.9236
1919.5 0.9246
1920.0 0.9253
1920.5 0.9253
1921.0 0.9278
1921.5 0.9277
1922.0 0.9281
1922.5 0.9282
1923.0 0.9298
1923.5 0.9302
1924.0 0.9299
1924.5 0.9309
1925.0 0.9320
1925.5 0.9317
1926.0 0.9310
1926.5 0.9323
1927.0 0.9326
1927.5 0.9315
1928.0 0.9317
1928.5 0.9325
1929.0 0.9319
1929.5 0.9307
1930.0 0.9305
1930.5 0.9306
1931.0 0.9297
1931.5 0.9277
1932.0 0.9277
1932.5 0.9275
1933.0 0.9246
1933.5 0.9241
1934.0 0.9236
1934.5 0.9219
1935.0 0.9192
1935.5 0.9183
1936.0 0.9170
1936.5 0.9149
1937.0 0.9116
1937.5 0.9109
1938.0 0.9089
1938.5 0.9058
1939.0 0.9033
1939.5 0.9021
1940.0 0.8994
1940.5 0.8958
1941.0 0.8943
1941.5 0.8922
1942.0 0.8891
1942.5 0.8864
1943.0 0.8842
1943.5 0.8822
1944.0 0.8788
1944.5 0.8758
1945.0 0.8744
1945.5 0.8714
1946.0 0.8680
1946.5 0.8659
1947.0 0.8647
1947.5 0.8613
1948.0 0.8585
1948.5 0.8572
1949.0 0.8551
1949.5 0.8521
1950.0 0.8504
1950.5 0.8495
1951.0 0.8474
1951.5 0.8451
1952.0 0.8437
1952.5 0.8435
1953.0 0.8412
1953.5 0.8394
1954.0 0.8391
1954.5 0.8388
1955.0 0.8364
1955.5 0.8359
1956.0 0.8366
1956.5 0.8356
1957.0 0.8344
1957.5 0.8348
1958.0 0.8355
1958.5 0.8344
1959.0 0.8342
1959.5 0.8360
1960.0 0.8365
1960.5 0.8365
1961.0 0.8366
1961.5 0.8389
1962.0 0.8393
1962.5 0.8397
1963.0 0.8416
1963.5 0.8443
1964.0 0.8442
1964.5 0.8456
1965.0 0.8483
1965.5 0.8507
1966.0 0.8513
1966.5 0.8536
1967.0 0.8568
1967.5 0.8585
1968.0 0.8596
1968.5 0.8627
1969.0 0.8663
1969.5 0.8678
1970.0 0.8695
1970.5 0.8733
1971.0 0.8760
1971.5 0.8771
1972.0 0.8802
1972.5 0.8840
1973.0 0.8862
1973.5 0.8874
1974.0 0.8908
1974.5 0.8940
1975.0 0.8957
1975.5 0.8975
1976.0 0.9011
1976.5 0.9036
1977.0 0.9042
1977.5 0.9066
1978.0 0.9097
1978.5 0.9111
1979.0 0.9118
1979.5 0.9146
1980.0 0.9167
1980.5 0.9168
1981.0 0.9177
1981.5 0.9201
1982.0 0.9212
1982.5 0.9209
1983.0 0.9214
1983.5 0.9229
1984.0 0.9233
1984.5 0.9220
1985.0 0.9229
1985.5 0.9239
1986.0 0.9221
1986.5 0.9210
1987.0 0.9213
1987.5 0.9211
1988.0 0.9185
1988.5 0.9178
1989.0 0.9176
1989.5 0.9157
1990.0 0.9130
1990.5 0.9119
1991.0 0.9109
1991.5 0.9086
1992.0 0.9056
1992.5 0.9050
1993.0 0.9032
1993.5 0.8992
1994.0 0.8971
1994.5 0.8962
1995.0 0.8935
1995.5 0.8900
1996.0 0.8882
1996.5 0.8863
1997.0 0.8830
1997.5 0.8801
1998.0 0.8786
1998.5 0.8765
1999.0 0.8730
1999.5 0.8700
2000.0 0.8690
2000.5 0.8654
2001.0 0.8633
2001.5 0.8625
2002.0 0.8600
2002.5 0.8569
2003.0 0.8559
2003.5 0.8542
2004.0 0.8518
2004.5 0.8497
2005.0 0.8489
2005.5 0.8479
2006.0 0.8456
2006.5 0.8446
2007.0 0.8444
2007.5 0.8427
2008.0 0.8411
2008.5 0.8410
2009.0 0.8409
2009.5 0.8398
2010.0 0.8392
2010.5 0.8393
2011.0 0.8393
2011.5 0.8389
2012.0 0.8393
2012.5 0.8397
2013.0 0.8406
2013.5 0.8399
2014.0 0.8412
2014.5 0.8425
2015.0 0.8428
2015.5 0.8433
2016.0 0.8453
2016.5 0.8466
2017.0 0.8475
2017.5 0.8487
2018.0 0.8509
2018.5 0.8522
2019.0 0.8539
2019.5 0.8555
2020.0 0.8581
2020.5 0.8599
2021.0 0.8614
2021.5 0.8632
2022.0 0.8663
2022.5 0.8682
2023.0 0.8703
2023.5 0.8728
2024.0 0.8754
2024.5 0.8769
2025.0 0.8796
2025.5 0.8826
2026.0 0.8844
2026.5 0.8867
2027.0 0.8892
2027.5 0.8917
2028.0 0.8939
2028.5 0.8961
2029.0 0.8987
2029.5 0.9011
2030.0 0.9026
2030.5 0.9052
2031.0 0.9075
2031.5 0.9096
2032.0 0.9109
2032.5 0.9129
2033.0 0.9148
2033.5 0.9163
2034.0 0.9175
2034.5 0.9195
2035.0 0.9208
2035.5 0.9220
2036.0 0.9226
2036.5 0.9244
2037.0 0.9253
2037.5 0.9256
2038.0 0.9265
2038.5 0.9271
2039.0 0.9278
2039.5 0.9275
2040.0 0.9281
2040.5 0.9285
2041.0 0.9289
2041.5 0.9283
2042.0 0.9285
2042.5 0.9281
2043.0 0.9275
2043.5 0.9271
2044.0 0.9269
2044.5 0.9260
2045.0 0.9252
2045.5 0.9246
2046.0 0.9240
2046.5 0.9232
2047.0 0.9219
2047.5 0.9211
2048.0 0.9201
2048.5 0.9189
2049.0 0.9173
2049.5 0.9166
2050.0 0.9160
2050.5 0.9140
2051.0 0.9129
2051.5 0.9120
2052.0 0.9103
2052.5 0.9091
2053.0 0.9081
2053.5 0.9071
2054.0 0.9056
2054.5 0.9043
2055.0 0.9033
2055.5 0.9022
2056.0 0.9007
2056.5 0.9001
2057.0 0.8995
2057.5 0.8983
2058.0 0.8968
2058.5 0.8961
2059.0 0.8956
2059.5 0.8943
2060.0 0.8939
2060.5 0.8932
2061.0 0.8925
2061.5 0.8919
2062.0 0.8911
2062.5 0.8911
2063.0 0.8908
2063.5 0.8902
2064.0 0.8902
2064.5 0.8896
2065.0 0.8893
2065.5 0.8888
2066.0 0.8897
2066.5 0.8899
2067.0 0.8894
2067.5 0.8892
2068.0 0.8902
2068.5 0.8897
2069.0 0.8899
2069.5 0.8905
2070.0 0.8910
2070.5 0.8907
2071.0 0.8911
2071.5 0.8916
2072.0 0.8927
2072.5 0.8930
2073.0 0.8932
2073.5 0.8943
2074.0 0.8945
2074.5 0.8947
2075.0 0.8955
2075.5 0.8967
2076.0 0.8968
2076.5 0.8974
2077.0 0.8982
2077.5 0.8986
2078.0 0.8991
2078.5 0.8995
2079.0 0.9007
2079.5 0.9012
2080.0 0.9013
2080.5 0.9018
2081.0 0.9030
2081.5 0.9028
2082.0 0.9033
2082.5 0.9042
2083.0 0.9046
2083.5 0.9046
2084.0 0.9051
2084.5 0.9056
2085.0 0.9056
2085.5 0.9062
2086.0 0.9059
2086.5 0.9063
2087.0 0.9063
2087.5 0.9058
2088.0 0.9066
2088.5 0.9070
2089.0 0.9062
2089.5 0.9064
2090.0 0.9065
2090.5 0.9062
2091.0 0.9055
2091.5 0.9057
2092.0 0.9057
2092.5 0.9049
2093.0 0.9041
2093.5 0.9040
2094.0 0.9039
2094.5 0.9034
2095.0 0.9027
2095.5 0.9034
2096.0 0.9022
2096.5 0.9008
2097.0 0.9014
2097.5 0.9012
2098.0 0.8998
2098.5 0.8995
2099.0 0.8991
2099.5 0.8985
2100.0 0.8973
2100.5 0.8972
2101.0 0.8972
2101.5 0.8962
2102.0 0.8953
2102.5 0.8947
2103.0 0.8949
2103.5 0.8939
2104.0 0.8932
2104.5 0.8936
2105.0 0.8930
2105.5 0.8917
2106.0 0.8918
2106.5 0.8919
2107.0 0.8913
2107.5 0.8903
2108.0 0.8908
2108.5 0.8906
2109.0 0.8896
2109.5 0.8895
2110.0 0.8900
2110.5 0.8900
2111.0 0.8892
2111.5 0.8895
2112.0 0.8899
2112.5 0.8895
2113.0 0.8891
2113.5 0.8897
2114.0 0.8902
2114.5 0.8895
2115.0 0.8896
2115.5 0.8909
2116.0 0.8905
2116.5 0.8904
2117.0 0.8911
2117.5 0.8921
2118.0 0.8916
2118.5 0.8913
2119.0 0.8926
2119.5 0.8935
2120.0 0.8929
2120.5 0.8936
2121.0 0.8950
2121.5 0.8947
2122.0 0.8945
2122.5 0.8964
2123.0 0.8970
2123.5 0.8967
2124.0 0.8976
2124.5 0.8981
2125.0 0.8989
2125.5 0.8988
2126.0 0.8994
2126.5 0.9008
2127.0 0.9008
2127.5 0.9004
2128.0 0.9020
2128.5 0.9024
2129.0 0.9023
2129.5 0.9030
2130.0 0.9041
2130.5 0.9041
2131.0 0.9039
2131.5 0.9048
2132.0 0.9057
2132.5 0.9054
2133.0 0.9058
2133.5 0.9062
2134.0 0.9073
2134.5 0.9062
2135.0 0.9064
2135.5 0.9078
2136.0 0.9073
2136.5 0.9066
2137.0 0.9075
2137.5 0.9085
2138.0 0.9070
2138.5 0.9070
2139.0 0.9082
2139.5 0.9080
2140.0 0.9066
2140.5 0.9072
2141.0 0.9075
2141.5 0.9073
2142.0 0.9060
2142.5 0.9067
2143.0 0.9071
2143.5 0.9057
2144.0 0.9050
2144.5 0.9057
2145.0 0.9057
2145.5 0.9040
2146.0 0.9044
2146.5 0.9045
2147.0 0.9035
2147.5 0.9023
2148.0 0.9026
2148.5 0.9030
2149.0 0.9017
2149.5 0.9003
2150.0 0.9012
2150.5 0.9007
2151.0 0.8994
2151.5 0.8991
2152.0 0.8999
2152.5 0.8987
2153.0 0.8966
2153.5 0.8974
2154.0 0.8975
2154.5 0.8960
2155.0 0.8954
2155.5 0.8958
2156.0 0.8951
2156.5 0.8937
2157.0 0.8934
2157.5 0.8945
2158.0 0.8933
2158.5 0.8915
2159.0 0.8921
2159.5 0.8928
2160.0 0.8909
2160.5 0.8903
2161.0 0.8915
2161.5 0.8906
2162.0 0.8888
2162.5 0.8891
2163.0 0.8896
2163.5 0.8885
2164.0 0.8875
2164.5 0.8879
2165.0 0.8886
2165.5 0.8869
2166.0 0.8863
2166.5 0.8871
2167.0 0.8871
2167.5 0.8851
2168.0 0.8858
2168.5 0.8867
2169.0 0.8854
2169.5 0.8841
2170.0 0.8855
2170.5 0.8852
2171.0 0.8842
2171.5 0.8833
2172.0 0.8841
2172.5 0.8838
2173.0 0.8826
2173.5 0.8825
2174.0 0.8838
2174.5 0.8824
2175.0 0.8808
2175.5 0.8817
2176.0 0.8821
2176.5 0.8808
2177.0 0.8801
2177.5 0.8815
2178.0 0.8808
2178.5 0.8789
2179.0 0.8785
2179.5 0.8797
2180.0 0.8791
2180.5 0.8773
2181.0 0.8774
2181.5 0.8785
2182.0 0.8761
2182.5 0.8758
2183.0 0.8768
2183.5 0.8764
2184.0 0.8743
2184.5 0.8741
2185.0 0.8752
2185.5 0.8738
2186.0 0.8727
2186.5 0.8733
2187.0 0.8734
2187.5 0.8719
2188.0 0.8705
2188.5 0.8713
2189.0 0.8715
2189.5 0.8694
2190.0 0.8692
2190.5 0.8703
2191.0 0.8683
2191.5 0.8672
2192.0 0.8683
2192.5 0.8683
2193.0 0.8667
2193.5 0.8659
2194.0 0.8666
2194.5 0.8667
2195.0 0.8652
2195.5 0.8648
2196.0 0.8661
2196.5 0.8655
2197.0 0.8631
2197.5 0.8638
2198.0 0.8655
2198.5 0.8635
2199.0 0.8630
2199.5 0.8645
2200.0 0.8646
2200.5 0.8626
2201.0 0.8630
2201.5 0.8644
2202.0 0.8639
2202.5 0.8627
2203.0 0.8637
2203.5 0.8648
2204.0 0.8636
2204.5 0.8632
2205.0 0.8652
2205.5 0.8654
2206.0 0.8638
2206.5 0.8643
2207.0 0.8661
2207.5 0.8659
2208.0 0.8649
2208.5 0.8663
2209.0 0.8678
2209.5 0.8666
2210.0 0.8665
2210.5 0.8681
2211.0 0.8690
2211.5 0.8682
2212.0 0.8685
2212.5 0.8707
2213.0 0.8703
2213.5 0.8692
2214.0 0.8706
2214.5 0.8727
2215.0 0.8713
2215.5 0.8710
2216.0 0.8727
2216.5 0.8735
2217.0 0.8722
2217.5 0.8730
2218.0 0.8745
2218.5 0.8745
2219.0 0.8728
2219.5 0.8742
2220.0 0.8755
2220.5 0.8740
2221.0 0.8735
2221.5 0.8751
2222.0 0.8748
2222.5 0.8733
2223.0 0.8735
2223.5 0.8745
2224.0 0.8733
2224.5 0.8720
2225.0 0.8722
2225.5 0.8728
2226.0 0.8709
2226.5 0.8696
2227.0 0.8703
2227.5 0.8701
2228.0 0.8672
2228.5 0.8664
2229.0 0.8669
2229.5 0.8646
2230.0 0.8628
2230.5 0.8621
2231.0 0.8619
2231.5 0.8590
2232.0 0.8567
2232.5 0.8561
2233.0 0.8553
2233.5 0.8518
2234.0 0.8500
2234.5 0.8493
2235.0 0.8472
2235.5 0.8433
2236.0 0.8423
2236.5 0.8417
2237.0 0.8376
2237.5 0.8349
2238.0 0.8341
2238.5 0.8317
2239.0 0.8281
2239.5 0.8258
2240.0 0.8244
2240.5 0.8218
2241.0 0.8176
2241.5 0.8156
2242.0 0.8145
2242.5 0.8105
2243.0 0.8077
2243.5 0.8064
2244.0 0.8041
2244.5 0.7997
2245.0 0.7974
2245.5 0.7963
2246.0 0.7932
2246.5 0.7895
2247.0 0.7876
2247.5 0.7861
2248.0 0.7826
2248.5 0.7795
2249.0 0.7786
2249.5 0.7766
2250.0 0.7729
2250.5 0.7705
2251.0 0.7698
2251.5 0.7672
2252.0 0.7644
2252.5 0.7630
2253.0 0.7622
2253.5 0.7590
2254.0 0.7573
2254.5 0.7561
2255.0 0.7555
2255.5 0.7529
2256.0 0.7513
2256.5 0.7511
2257.0 0.7498
2257.5 0.7476
2258.0 0.7470
2258.5 0.7474
2259.0 0.7455
2259.5 0.7442
2260.0 0.7443
2260.5 0.7444
2261.0 0.7427
2261.5 0.7427
2262.0 0.7430
2262.5 0.7434
2263.0 0.7420
2263.5 0.7423
2264.0 0.7443
2264.5 0.7438
2265.0 0.7432
2265.5 0.7452
2266.0 0.7463
2266.5 0.7459
2267.0 0.7470
2267.5 0.7490
2268.0 0.7502
2268.5 0.7504
2269.0 0.7521
2269.5 0.7544
2270.0 0.7557
2270.5 0.7564
2271.0 0.7590
2271.5 0.7614
2272.0 0.7625
2272.5 0.7638
2273.0 0.7673
2273.5 0.7696
2274.0 0.7708
2274.5 0.7733
2275.0 0.7772
2275.5 0.7789
2276.0 0.7809
2276.5 0.7842
2277.0 0.7873
2277.5 0.7893
2278.0 0.7918
2278.5 0.7955
2279.0 0.7991
2279.5 0.8004
2280.0 0.8037
2280.5 0.8083
2281.0 0.8103
2281.5 0.8125
2282.0 0.8164
2282.5 0.8204
2283.0 0.8223
2283.5 0.8249
2284.0 0.8292
2284.5 0.8321
2285.0 0.8342
2285.5 0.8368
2286.0 0.8410
2286.5 0.8436
2287.0 0.8451
2287.5 0.8486
2288.0 0.8522
2288.5 0.8538
2289.0 0.8556
2289.5 0.8593
2290.0 0.8617
2290.5 0.8622
2291.0 0.8646
2291.5 0.8678
2292.0 0.8689
2292.5 0.8699
2293.0 0.8719
2293.5 0.8740
2294.0 0.8746
2294.5 0.8748
2295.0 0.8768
2295.5 0.8784
2296.0 0.8772
2296.5 0.8782
2297.0 0.8795
2297.5 0.8793
2298.0 0.8783
2298.5 0.8791
2299.0 0.8795
2299.5 0.8783
2300.0 0.8770
2300.5 0.8771
2301.0 0.8768
2301.5 0.8748
2302.0 0.8731
2302.5 0.8737
2303.0 0.8718
2303.5 0.8689
2304.0 0.8681
2304.5 0.8675
2305.0 0.8646
2305.5 0.8624
2306.0 0.8615
2306.5 0.8594
2307.0 0.8564
2307.5 0.8539
2308.0 0.8525
2308.5 0.8506
2309.0 0.8467
2309.5 0.8446
2310.0 0.8435
2310.5 0.8395
2311.0 0.8361
2311.5 0.8350
2312.0 0.8331
2312.5 0.8289
2313.0 0.8267
2313.5 0.8249
2314.0 0.8220
2314.5 0.8188
2315.0 0.8166
2315.5 0.8153
2316.0 0.8121
2316.5 0.8089
2317.0 0.8074
2317.5 0.8059
2318.0 0.8025
2318.5 0.8006
2319.0 0.7995
2319.5 0.7972
2320.0 0.7944
2320.5 0.7927
2321.0 0.7923
2321.5 0.7899
2322.0 0.7875
2322.5 0.7864
2323.0 0.7857
2323.5 0.7838
2324.0 0.7818
2324.5 0.7818
2325.0 0.7811
2325.5 0.7785
2326.0 0.7778
2326.5 0.7782
2327.0 0.7769
2327.5 0.7759
2328.0 0.7760
2328.5 0.7761
2329.0 0.7750
2329.5 0.7743
2330.0 0.7753
2330.5 0.7760
2331.0 0.7747
2331.5 0.7747
2332.0 0.7763
2332.5 0.7761
2333.0 0.7759
2333.5 0.7770
2334.0 0.7789
2334.5 0.7783
2335.0 0.7788
2335.5 0.7805
2336.0 0.7823
2336.5 0.7826
2337.0 0.7833
2337.5 0.7859
2338.0 0.7868
2338.5 0.7871
2339.0 0.7888
2339.5 0.7919
2340.0 0.7923
2340.5 0.7932
2341.0 0.7957
2341.5 0.7978
2342.0 0.7990
2342.5 0.8006
2343.0 0.8035
2343.5 0.8053
2344.0 0.8060
2344.5 0.8080
2345.0 0.8113
2345.5 0.8129
2346.0 0.8138
2346.5 0.8165
2347.0 0.8195
2347.5 0.8199
2348.0 0.8215
2348.5 0.8250
2349.0 0.8273
2349.5 0.8277
2350.0 0.8299
2350.5 0.8327
2351.0 0.8342
2351.5 0.8349
2352.0 0.8375
2352.5 0.8401
2353.0 0.8411
2353.5 0.8414
2354.0 0.8443
2354.5 0.8457
2355.0 0.8463
2355.5 0.8479
2356.0 0.8504
2356.5 0.8508
2357.0 0.8512
2357.5 0.8525
2358.0 0.8546
2358.5 0.8551
2359.0 0.8545
2359.5 0.8566
2360.0 0.8579
2360.5 0.8572
2361.0 0.8572
2361.5 0.8596
2362.0 0.8596
2362.5 0.8587
2363.0 0.8592
2363.5 0.8604
2364.0 0.8599
2364.5 0.8590
2365.0 0.8601
2365.5 0.8609
2366.0 0.8593
2366.5 0.8587
2367.0 0.8598
2367.5 0.8594
2368.0 0.8578
2368.5 0.8577
2369.0 0.8587
2369.5 0.8570
2370.0 0.8559
2370.5 0.8560
2371.0 0.8563
2371.5 0.8548
2372.0 0.8533
2372.5 0.8540
2373.0 0.8535
2373.5 0.8516
2374.0 0.8514
2374.5 0.8520
2375.0 0.8509
2375.5 0.8493
2376.0 0.8488
2376.5 0.8494
2377.0 0.8476
2377.5 0.8469
2378.0 0.8471
2378.5 0.8466
2379.0 0.8449
2379.5 0.8448
2380.0 0.8451
2380.5 0.8449
2381.0 0.8429
2381.5 0.8433
2382.0 0.8438
2382.5 0.8426
2383.0 0.8417
2383.5 0.8425
2384.0 0.8427
2384.5 0.8414
2385.0 0.8411
2385.5 0.8423
2386.0 0.8418
2386.5 0.8412
2387.0 0.8413
2387.5 0.8422
2388.0 0.8418
2388.5 0.8406
2389.0 0.8421
2389.5 0.8427
2390.0 0.8421
2390.5 0.8416
2391.0 0.8435
2391.5 0.8434
2392.0 0.8427
2392.5 0.8433
2393.0 0.8450
2393.5 0.8443
2394.0 0.8440
2394.5 0.8447
2395.0 0.8459
2395.5 0.8452
2396.0 0.8450
2396.5 0.8466
2397.0 0.8467
2397.5 0.8460
2398.0 0.8460
2398.5 0.8480
2399.0 0.8469
2399.5 0.8464
2400.0 0.8471
2400.5 0.8481
2401.0 0.8469
2401.5 0.8464
2402.0 0.8473
2402.5 0.8479
2403.0 0.8460
2403.5 0.8458
2404.0 0.8469
2404.5 0.8459
2405.0 0.8440
2405.5 0.8440
2406.0 0.8445
2406.5 0.8426
2407.0 0.8410
2407.5 0.8413
2408.0 0.8404
2408.5 0.8385
2409.0 0.8371
2409.5 0.8372
2410.0 0.8357
2410.5 0.8326
2411.0 0.8319
2411.5 0.8312
2412.0 0.8283
2412.5 0.8261
2413.0 0.8250
2413.5 0.8234
2414.0 0.8204
2414.5 0.8182
2415.0 0.8175
2415.5 0.8148
2416.0 0.8113
2416.5 0.8093
2417.0 0.8083
2417.5 0.8051
2418.0 0.8017
2418.5 0.8000
2419.0 0.7979
2419.5 0.7941
2420.0 0.7911
2420.5 0.7900
2421.0 0.7869
2421.5 0.7829
2422.0 0.7809
2422.5 0.7792
2423.0 0.7754
2423.5 0.7725
2424.0 0.7702
2424.5 0.7686
2425.0 0.7643
2425.5 0.7614
2426.0 0.7601
2426.5 0.7577
2427.0 0.7536
2427.5 0.7516
2428.0 0.7505
2428.5 0.7470
2429.0 0.7441
2429.5 0.7430
2430.0 0.7413
2430.5 0.7381
2431.0 0.7357
2431.5 0.7353
2432.0 0.7332
2432.5 0.7303
2433.0 0.7288
2433.5 0.7287
2434.0 0.7263
2434.5 0.7236
2435.0 0.7234
2435.5 0.7228
2436.0 0.7207
2436.5 0.7189
2437.0 0.7194
2437.5 0.7186
2438.0 0.7169
2438.5 0.7160
2439.0 0.7168
2439.5 0.7159
2440.0 0.7146
2440.5 0.7151
2441.0 0.7160
2441.5 0.7148
2442.0 0.7143
2442.5 0.7157
2443.0 0.7161
2443.5 0.7158
2444.0 0.7159
2444.5 0.7178
2445.0 0.7180
2445.5 0.7181
2446.0 0.7198
2446.5 0.7215
2447.0 0.7219
2447.5 0.7218
2448.0 0.7243
2448.5 0.7261
2449.0 0.7264
2449.5 0.7278
2450.0 0.7305
2450.5 0.7315
2451.0 0.7322
2451.5 0.7346
2452.0 0.7373
2452.5 0.7383
2453.0 0.7390
2453.5 0.7420
2454.0 0.7442
2454.5 0.7452
2455.0 0.7468
2455.5 0.7500
2456.0 0.7517
2456.5 0.7522
2457.0 0.7546
2457.5 0.7574
2458.0 0.7586
2458.5 0.7594
2459.0 0.7621
2459.5 0.7642
2460.0 0.7646
2460.5 0.7659
2461.0 0.7685
2461.5 0.7702
2462.0 0.7698
2462.5 0.7712
2463.0 0.7740
2463.5 0.7740
2464.0 0.7738
2464.5 0.7758
2465.0 0.7769
2465.5 0.7762
2466.0 0.7761
2466.5 0.7778
2467.0 0.7777
2467.5 0.7764
2468.0 0.7770
2468.5 0.7774
2469.0 0.7770
2469.5 0.7753
2470.0 0.7750
2470.5 0.7755
2471.0 0.7733
2471.5 0.7716
2472.0 0.7722
2472.5 0.7707
2473.0 0.7685
2473.5 0.7669
2474.0 0.7664
2474.5 0.7648
2475.0 0.7620
2475.5 0.7607
2476.0 0.7599
2476.5 0.7572
2477.0 0.7547
2477.5 0.7541
2478.0 0.7524
2478.5 0.7492
2479.0 0.7475
2479.5 0.7465
2480.0 0.7441
2480.5 0.7422
2481.0 0.7404
2481.5 0.7394
2482.0 0.7369
2482.5 0.7350
2483.0 0.7341
2483.5 0.7333
2484.0 0.7306
2484.5 0.7295
2485.0 0.7293
2485.5 0.7283
2486.0 0.7266
2486.5 0.7266
2487.0 0.7263
2487.5 0.7255
2488.0 0.7249
2488.5 0.7256
2489.0 0.7260
2489.5 0.7254
2490.0 0.7256
2490.5 0.7275
2491.0 0.7281
2491.5 0.7288
2492.0 0.7305
2492.5 0.7319
2493.0 0.7336
2493.5 0.7348
2494.0 0.7379
2494.5 0.7402
2495.0 0.7424
2495.5 0.7443
2496.0 0.7468
2496.5 0.7502
2497.0 0.7528
2497.5 0.7550
2498.0 0.7586
2498.5 0.7611
2499.0 0.7627
2499.5 0.7655
2500.0 0.7689
2500.5 0.7702
2501.0 0.7716
2501.5 0.7736
2502.0 0.7741
2502.5 0.7744
2503.0 0.7735
2503.5 0.7730
2504.0 0.7712
2504.5 0.7673
2505.0 0.7638
2505.5 0.7590
2506.0 0.7522
2506.5 0.7447
2507.0 0.7359
2507.5 0.7269
2508.0 0.7158
2508.5 0.7029
2509.0 0.6893
2509.5 0.6737
2510.0 0.6570
2510.5 0.6390
2511.0 0.6212
2511.5 0.6025
2512.0 0.5812
2512.5 0.5600
2513.0 0.5391
2513.5 0.5167
2514.0 0.4940
2514.5 0.4719
2515.0 0.4493
2515.5 0.4250
2516.0 0.4020
2516.5 0.3790
2517.0 0.3571
2517.5 0.3360
2518.0 0.3155
2518.5 0.2968
2519.0 0.2788
2519.5 0.2616
2520.0 0.2457
2520.5 0.2310
2521.0 0.2167
2521.5 0.2027
2522.0 0.1900
2522.5 0.1774
2523.0 0.1652
2523.5 0.1540
2524.0 0.1435
2524.5 0.1337
2525.0 0.1240
2525.5 0.1152
2526.0 0.1073
2526.5 0.1002
2527.0 0.0938
2527.5 0.0881
2528.0 0.0826
2528.5 0.0774
2529.0 0.0724
2529.5 0.0676
2530.0 0.0633
2530.5 0.0591
2531.0 0.0552
2531.5 0.0516
2532.0 0.0480
2532.5 0.0445
2533.0 0.0415
2533.5 0.0386
2534.0 0.0360
2534.5 0.0335
2535.0 0.0313
2535.5 0.0292
2536.0 0.0273
2536.5 0.0256
2537.0 0.0241
2537.5 0.0227
2538.0 0.0214
2538.5 0.0201
2539.0 0.0191
2539.5 0.0182
2540.0 0.0173
2540.5 0.0163
2541.0 0.0156
2541.5 0.0146
2542.0 0.0137
2542.5 0.0130
2543.0 0.0122
2543.5 0.0114
2544.0 0.0107
2544.5 0.0100
2545.0 0.0094
2545.5 0.0089
2546.0 0.0085
2546.5 0.0080
2547.0 0.0076
2547.5 0.0072
2548.0 0.0069
2548.5 0.0065
2549.0 0.0061
2549.5 0.0057
2550.0 0.0054
2550.5 0.0051
2551.0 0.0048
2551.5 0.0045
2552.0 0.0043
2552.5 0.0040
2553.0 0.0038
2553.5 0.0037
2554.0 0.0035
2554.5 0.0033
2555.0 0.0032
2555.5 0.0031
2556.0 0.0030
2556.5 0.0028
2557.0 0.0028
2557.5 0.0026
2558.0 0.0026
2558.5 0.0025
2559.0 0.0024
2559.5 0.0024
2560.0 0.0022
2560.5 0.0021
2561.0 0.0020
2561.5 0.0019
2562.0 0.0017
2562.5 0.0017
2563.0 0.0015
2563.5 0.0015
2564.0 0.0014
2564.5 0.0013
2565.0 0.0012
2565.5 0.0012
2566.0 0.0012
2566.5 0.0011
2567.0 0.0011
2567.5 0.0011
2568.0 0.0010
2568.5 0.0010
2569.0 0.0009
2569.5 0.0009
2570.0 0.0009
2570.5 0.0008
2571.0 0.0008
2571.5 0.0008
2572.0 0.0007
2572.5 0.0007
2573.0 0.0007
2573.5 0.0007
2574.0 0.0007
2574.5 0.0006
2575.0 0.0005
2575.5 0.0006
2576.0 0.0006
2576.5 0.0006
2577.0 0.0005
2577.5 0.0005
2578.0 0.0005
2578.5 0.0004
2579.0 0.0004
2579.5 0.0004
2580.0 0.0003
2580.5 0.0004
2581.0 0.0004
2581.5 0.0004
2582.0 0.0004
2582.5 0.0003
2583.0 0.0004
2583.5 0.0004
2584.0 0.0003
2584.5 0.0003
2585.0 0.0003
2585.5 0.0003
2586.0 0.0003
2586.5 0.0003
2587.0 0.0003
2587.5 0.0002
2588.0 0.0003
2588.5 0.0002
2589.0 0.0002
2589.5 0.0002
2590.0 0.0002
2590.5 0.0003
2591.0 0.0002
2591.5 0.0003
2592.0 0.0002
2592.5 0.0003
2593.0 0.0002
2593.5 0.0002
2594.0 0.0002
2594.5 0.0002
2595.0 0.0002
2595.5 0.0002
2596.0 0.0002
2596.5 0.0002
2597.0 0.0002
2597.5 0.0002
2598.0 0.0002
2598.5 0.0001
2599.0 0.0002
2599.5 0.0001
2600.0 0.0001
